#X		#Y		#Wave		#Intensity
20396.908989	-1224.422500	1999.980469	22.670372
20396.908989	-1224.422500	1999.016602	-65.569832
20396.908989	-1224.422500	1998.052734	-42.449802
20396.908989	-1224.422500	1997.087891	-180.798386
20396.908989	-1224.422500	1996.123047	210.751526
20396.908989	-1224.422500	1995.158203	64.238556
20396.908989	-1224.422500	1994.193359	88.325172
20396.908989	-1224.422500	1993.228516	-108.325493
20396.908989	-1224.422500	1992.262695	-243.331406
20396.908989	-1224.422500	1991.297852	-17.202852
20396.908989	-1224.422500	1990.332031	144.190811
20396.908989	-1224.422500	1989.366211	-11.500330
20396.908989	-1224.422500	1988.399414	-18.976448
20396.908989	-1224.422500	1987.433594	-167.718002
20396.908989	-1224.422500	1986.466797	145.796906
20396.908989	-1224.422500	1985.500977	-43.001400
20396.908989	-1224.422500	1984.534180	-88.588615
20396.908989	-1224.422500	1983.567383	-25.640429
20396.908989	-1224.422500	1982.599609	227.343262
20396.908989	-1224.422500	1981.632813	139.046829
20396.908989	-1224.422500	1980.665039	361.834595
20396.908989	-1224.422500	1979.697266	166.930420
20396.908989	-1224.422500	1978.729492	246.010727
20396.908989	-1224.422500	1977.761719	-13.369405
20396.908989	-1224.422500	1976.792969	134.470367
20396.908989	-1224.422500	1975.825195	252.470444
20396.908989	-1224.422500	1974.856445	148.183105
20396.908989	-1224.422500	1973.887695	38.845871
20396.908989	-1224.422500	1972.918945	20.668152
20396.908989	-1224.422500	1971.949219	199.651825
20396.908989	-1224.422500	1970.980469	-85.121468
20396.908989	-1224.422500	1970.010742	115.742897
20396.908989	-1224.422500	1969.041016	-16.339005
20396.908989	-1224.422500	1968.071289	38.806194
20396.908989	-1224.422500	1967.101563	197.307755
20396.908989	-1224.422500	1966.130859	249.717575
20396.908989	-1224.422500	1965.161133	-67.435059
20396.908989	-1224.422500	1964.190430	21.756783
20396.908989	-1224.422500	1963.219727	167.457870
20396.908989	-1224.422500	1962.249023	34.862061
20396.908989	-1224.422500	1961.277344	229.573776
20396.908989	-1224.422500	1960.306641	131.321579
20396.908989	-1224.422500	1959.334961	67.483475
20396.908989	-1224.422500	1958.363281	74.942635
20396.908989	-1224.422500	1957.391602	47.913654
20396.908989	-1224.422500	1956.419922	101.986008
20396.908989	-1224.422500	1955.447266	121.572449
20396.908989	-1224.422500	1954.474609	197.641769
20396.908989	-1224.422500	1953.501953	308.050568
20396.908989	-1224.422500	1952.529297	12.970794
20396.908989	-1224.422500	1951.556641	-1.978519
20396.908989	-1224.422500	1950.583984	344.103790
20396.908989	-1224.422500	1949.610352	105.578705
20396.908989	-1224.422500	1948.636719	-29.756451
20396.908989	-1224.422500	1947.663086	60.779373
20396.908989	-1224.422500	1946.689453	28.552641
20396.908989	-1224.422500	1945.715820	-96.917953
20396.908989	-1224.422500	1944.741211	49.974033
20396.908989	-1224.422500	1943.767578	-180.941376
20396.908989	-1224.422500	1942.792969	132.674423
20396.908989	-1224.422500	1941.818359	80.822136
20396.908989	-1224.422500	1940.842773	124.601891
20396.908989	-1224.422500	1939.868164	-64.481926
20396.908989	-1224.422500	1938.892578	-20.678024
20396.908989	-1224.422500	1937.916992	-72.438293
20396.908989	-1224.422500	1936.941406	37.516682
20396.908989	-1224.422500	1935.965820	260.111755
20396.908989	-1224.422500	1934.990234	100.623207
20396.908989	-1224.422500	1934.013672	-12.271276
20396.908989	-1224.422500	1933.037109	-59.010494
20396.908989	-1224.422500	1932.060547	48.478455
20396.908989	-1224.422500	1931.083984	80.093559
20396.908989	-1224.422500	1930.107422	45.664383
20396.908989	-1224.422500	1929.129883	-103.695221
20396.908989	-1224.422500	1928.153320	-10.851595
20396.908989	-1224.422500	1927.175781	-235.890015
20396.908989	-1224.422500	1926.198242	-143.001022
20396.908989	-1224.422500	1925.219727	86.759117
20396.908989	-1224.422500	1924.242188	72.086960
20396.908989	-1224.422500	1923.263672	37.903042
20396.908989	-1224.422500	1922.285156	59.950943
20396.908989	-1224.422500	1921.306641	145.528259
20396.908989	-1224.422500	1920.328125	111.451027
20396.908989	-1224.422500	1919.349609	126.251068
20396.908989	-1224.422500	1918.370117	-34.677948
20396.908989	-1224.422500	1917.391602	-39.309414
20396.908989	-1224.422500	1916.412109	-148.832184
20396.908989	-1224.422500	1915.431641	-21.628639
20396.908989	-1224.422500	1914.452148	25.072510
20396.908989	-1224.422500	1913.472656	-57.464218
20396.908989	-1224.422500	1912.492188	-47.276958
20396.908989	-1224.422500	1911.511719	9.262502
20396.908989	-1224.422500	1910.531250	-41.428852
20396.908989	-1224.422500	1909.550781	73.651840
20396.908989	-1224.422500	1908.569336	-125.588310
20396.908989	-1224.422500	1907.588867	-105.468765
20396.908989	-1224.422500	1906.607422	-131.598129
20396.908989	-1224.422500	1905.625977	-14.005943
20396.908989	-1224.422500	1904.644531	-66.851730
20396.908989	-1224.422500	1903.662109	-105.038017
20396.908989	-1224.422500	1902.680664	90.471550
20396.908989	-1224.422500	1901.698242	-317.527161
20396.908989	-1224.422500	1900.715820	23.990499
20396.908989	-1224.422500	1899.733398	-18.909571
20396.908989	-1224.422500	1898.750000	254.394455
20396.908989	-1224.422500	1897.767578	384.171753
20396.908989	-1224.422500	1896.784180	39.872639
20396.908989	-1224.422500	1895.800781	72.479401
20396.908989	-1224.422500	1894.817383	-254.558502
20396.908989	-1224.422500	1893.833984	21.122414
20396.908989	-1224.422500	1892.850586	131.539871
20396.908989	-1224.422500	1891.866211	215.226822
20396.908989	-1224.422500	1890.881836	-24.059349
20396.908989	-1224.422500	1889.897461	-100.560783
20396.908989	-1224.422500	1888.913086	-123.604599
20396.908989	-1224.422500	1887.927734	-134.481110
20396.908989	-1224.422500	1886.943359	46.366901
20396.908989	-1224.422500	1885.958008	-102.776024
20396.908989	-1224.422500	1884.972656	-130.561035
20396.908989	-1224.422500	1883.987305	-206.818314
20396.908989	-1224.422500	1883.001953	-59.954262
20396.908989	-1224.422500	1882.015625	106.266197
20396.908989	-1224.422500	1881.029297	-122.637413
20396.908989	-1224.422500	1880.042969	53.259537
20396.908989	-1224.422500	1879.056641	-42.258030
20396.908989	-1224.422500	1878.070313	121.474701
20396.908989	-1224.422500	1877.083984	33.271923
20396.908989	-1224.422500	1876.096680	87.983887
20396.908989	-1224.422500	1875.109375	186.263718
20396.908989	-1224.422500	1874.122070	-25.323471
20396.908989	-1224.422500	1873.134766	-101.294594
20396.908989	-1224.422500	1872.146484	-269.181274
20396.908989	-1224.422500	1871.159180	-216.846054
20396.908989	-1224.422500	1870.170898	-72.612656
20396.908989	-1224.422500	1869.182617	81.241272
20396.908989	-1224.422500	1868.194336	89.965340
20396.908989	-1224.422500	1867.205078	-99.546341
20396.908989	-1224.422500	1866.216797	100.148262
20396.908989	-1224.422500	1865.227539	125.772316
20396.908989	-1224.422500	1864.238281	71.651596
20396.908989	-1224.422500	1863.249023	80.351105
20396.908989	-1224.422500	1862.259766	43.151653
20396.908989	-1224.422500	1861.269531	-182.391571
20396.908989	-1224.422500	1860.279297	-77.106148
20396.908989	-1224.422500	1859.290039	-70.837166
20396.908989	-1224.422500	1858.298828	-88.719086
20396.908989	-1224.422500	1857.308594	52.644325
20396.908989	-1224.422500	1856.318359	44.365826
20396.908989	-1224.422500	1855.327148	-12.168452
20396.908989	-1224.422500	1854.335938	92.873154
20396.908989	-1224.422500	1853.344727	36.312443
20396.908989	-1224.422500	1852.353516	78.586456
20396.908989	-1224.422500	1851.362305	43.695705
20396.908989	-1224.422500	1850.370117	54.576023
20396.908989	-1224.422500	1849.377930	118.431236
20396.908989	-1224.422500	1848.385742	-109.234238
20396.908989	-1224.422500	1847.393555	-38.204044
20396.908989	-1224.422500	1846.401367	-82.811646
20396.908989	-1224.422500	1845.408203	130.163803
20396.908989	-1224.422500	1844.415039	-114.309052
20396.908989	-1224.422500	1843.421875	271.796661
20396.908989	-1224.422500	1842.428711	142.811600
20396.908989	-1224.422500	1841.435547	129.309540
20396.908989	-1224.422500	1840.441406	-57.403862
20396.908989	-1224.422500	1839.448242	-20.443171
20396.908989	-1224.422500	1838.454102	146.292603
20396.908989	-1224.422500	1837.459961	34.074112
20396.908989	-1224.422500	1836.464844	-66.130989
20396.908989	-1224.422500	1835.470703	13.878492
20396.908989	-1224.422500	1834.475586	69.783333
20396.908989	-1224.422500	1833.480469	36.742077
20396.908989	-1224.422500	1832.485352	-82.794449
20396.908989	-1224.422500	1831.490234	66.590408
20396.908989	-1224.422500	1830.495117	31.012518
20396.908989	-1224.422500	1829.499023	197.011536
20396.908989	-1224.422500	1828.502930	374.890808
20396.908989	-1224.422500	1827.506836	-25.593088
20396.908989	-1224.422500	1826.510742	46.595669
20396.908989	-1224.422500	1825.513672	284.186005
20396.908989	-1224.422500	1824.517578	-39.497570
20396.908989	-1224.422500	1823.520508	147.547928
20396.908989	-1224.422500	1822.523438	181.048172
20396.908989	-1224.422500	1821.526367	1.170901
20396.908989	-1224.422500	1820.529297	190.305557
20396.908989	-1224.422500	1819.531250	-35.160049
20396.908989	-1224.422500	1818.533203	158.562546
20396.908989	-1224.422500	1817.535156	28.842302
20396.908989	-1224.422500	1816.537109	-60.194935
20396.908989	-1224.422500	1815.539063	-51.120583
20396.908989	-1224.422500	1814.540039	-13.404525
20396.908989	-1224.422500	1813.541992	-18.846655
20396.908989	-1224.422500	1812.542969	73.728584
20396.908989	-1224.422500	1811.543945	-37.135876
20396.908989	-1224.422500	1810.543945	124.608421
20396.908989	-1224.422500	1809.544922	47.096798
20396.908989	-1224.422500	1808.544922	22.127329
20396.908989	-1224.422500	1807.544922	25.771637
20396.908989	-1224.422500	1806.544922	117.755333
20396.908989	-1224.422500	1805.544922	54.312820
20396.908989	-1224.422500	1804.544922	220.147293
20396.908989	-1224.422500	1803.543945	125.486465
20396.908989	-1224.422500	1802.542969	190.774506
20396.908989	-1224.422500	1801.541992	-56.822472
20396.908989	-1224.422500	1800.541016	208.820679
20396.908989	-1224.422500	1799.539063	199.801529
20396.908989	-1224.422500	1798.538086	257.516144
20396.908989	-1224.422500	1797.536133	-52.294655
20396.908989	-1224.422500	1796.534180	107.829559
20396.908989	-1224.422500	1795.532227	-1.689113
20396.908989	-1224.422500	1794.529297	15.110816
20396.908989	-1224.422500	1793.527344	98.566795
20396.908989	-1224.422500	1792.524414	48.414993
20396.908989	-1224.422500	1791.521484	157.853653
20396.908989	-1224.422500	1790.518555	95.607697
20396.908989	-1224.422500	1789.514648	264.353119
20396.908989	-1224.422500	1788.511719	166.191071
20396.908989	-1224.422500	1787.507813	-32.049335
20396.908989	-1224.422500	1786.503906	7.768177
20396.908989	-1224.422500	1785.500000	-2.516114
20396.908989	-1224.422500	1784.496094	-24.794338
20396.908989	-1224.422500	1783.491211	114.632492
20396.908989	-1224.422500	1782.486328	123.061279
20396.908989	-1224.422500	1781.481445	86.192711
20396.908989	-1224.422500	1780.476563	108.689445
20396.908989	-1224.422500	1779.471680	57.367458
20396.908989	-1224.422500	1778.465820	148.589417
20396.908989	-1224.422500	1777.460938	111.334747
20396.908989	-1224.422500	1776.455078	5.072305
20396.908989	-1224.422500	1775.449219	0.907420
20396.908989	-1224.422500	1774.442383	-72.252617
20396.908989	-1224.422500	1773.436523	-10.111126
20396.908989	-1224.422500	1772.429688	70.889908
20396.908989	-1224.422500	1771.422852	54.419754
20396.908989	-1224.422500	1770.416016	-14.368500
20396.908989	-1224.422500	1769.409180	-85.609833
20396.908989	-1224.422500	1768.402344	-21.687263
20396.908989	-1224.422500	1767.394531	-29.070019
20396.908989	-1224.422500	1766.386719	55.943027
20396.908989	-1224.422500	1765.378906	53.077328
20396.908989	-1224.422500	1764.371094	107.007568
20396.908989	-1224.422500	1763.362305	6.723192
20396.908989	-1224.422500	1762.354492	107.826027
20396.908989	-1224.422500	1761.345703	113.994186
20396.908989	-1224.422500	1760.336914	15.812342
20396.908989	-1224.422500	1759.328125	-132.181442
20396.908989	-1224.422500	1758.318359	25.260677
20396.908989	-1224.422500	1757.308594	-111.063400
20396.908989	-1224.422500	1756.299805	-176.417831
20396.908989	-1224.422500	1755.290039	27.955481
20396.908989	-1224.422500	1754.279297	52.290691
20396.908989	-1224.422500	1753.269531	159.323471
20396.908989	-1224.422500	1752.258789	-34.216953
20396.908989	-1224.422500	1751.249023	-154.466553
20396.908989	-1224.422500	1750.238281	-95.078300
20396.908989	-1224.422500	1749.226563	108.382278
20396.908989	-1224.422500	1748.215820	61.116779
20396.908989	-1224.422500	1747.204102	-142.219711
20396.908989	-1224.422500	1746.193359	-50.230793
20396.908989	-1224.422500	1745.181641	-0.914112
20396.908989	-1224.422500	1744.168945	36.458855
20396.908989	-1224.422500	1743.157227	59.550766
20396.908989	-1224.422500	1742.144531	40.020695
20396.908989	-1224.422500	1741.132813	-3.202643
20396.908989	-1224.422500	1740.120117	-148.009354
20396.908989	-1224.422500	1739.106445	-9.720642
20396.908989	-1224.422500	1738.093750	17.539150
20396.908989	-1224.422500	1737.080078	-73.263191
20396.908989	-1224.422500	1736.067383	71.703476
20396.908989	-1224.422500	1735.053711	70.314774
20396.908989	-1224.422500	1734.040039	-34.902084
20396.908989	-1224.422500	1733.025391	76.645416
20396.908989	-1224.422500	1732.011719	-0.459746
20396.908989	-1224.422500	1730.997070	-103.565308
20396.908989	-1224.422500	1729.982422	-25.353567
20396.908989	-1224.422500	1728.967773	-107.421608
20396.908989	-1224.422500	1727.952148	-52.998569
20396.908989	-1224.422500	1726.937500	48.397968
20396.908989	-1224.422500	1725.921875	90.801277
20396.908989	-1224.422500	1724.906250	-151.662766
20396.908989	-1224.422500	1723.890625	-144.728882
20396.908989	-1224.422500	1722.875000	-32.036018
20396.908989	-1224.422500	1721.858398	146.360062
20396.908989	-1224.422500	1720.841797	-141.010040
20396.908989	-1224.422500	1719.825195	-52.195412
20396.908989	-1224.422500	1718.808594	177.527344
20396.908989	-1224.422500	1717.791992	47.491009
20396.908989	-1224.422500	1716.774414	-200.088043
20396.908989	-1224.422500	1715.756836	123.208000
20396.908989	-1224.422500	1714.739258	-28.173759
20396.908989	-1224.422500	1713.721680	38.807533
20396.908989	-1224.422500	1712.704102	-86.856079
20396.908989	-1224.422500	1711.685547	-165.625336
20396.908989	-1224.422500	1710.667969	140.469604
20396.908989	-1224.422500	1709.649414	-72.245590
20396.908989	-1224.422500	1708.630859	-231.006668
20396.908989	-1224.422500	1707.611328	-68.449448
20396.908989	-1224.422500	1706.592773	-124.133667
20396.908989	-1224.422500	1705.573242	94.443527
20396.908989	-1224.422500	1704.553711	90.142426
20396.908989	-1224.422500	1703.534180	-36.122921
20396.908989	-1224.422500	1702.513672	-42.920250
20396.908989	-1224.422500	1701.494141	13.475674
20396.908989	-1224.422500	1700.473633	-232.429047
20396.908989	-1224.422500	1699.453125	-7.561784
20396.908989	-1224.422500	1698.432617	-61.514271
20396.908989	-1224.422500	1697.412109	-206.828445
20396.908989	-1224.422500	1696.390625	132.352417
20396.908989	-1224.422500	1695.369141	131.987045
20396.908989	-1224.422500	1694.347656	37.953461
20396.908989	-1224.422500	1693.326172	-16.347843
20396.908989	-1224.422500	1692.304688	83.667244
20396.908989	-1224.422500	1691.282227	-1.180950
20396.908989	-1224.422500	1690.260742	-29.940960
20396.908989	-1224.422500	1689.238281	263.812866
20396.908989	-1224.422500	1688.214844	-61.968292
20396.908989	-1224.422500	1687.192383	161.441803
20396.908989	-1224.422500	1686.168945	232.830826
20396.908989	-1224.422500	1685.146484	26.184057
20396.908989	-1224.422500	1684.123047	15.705937
20396.908989	-1224.422500	1683.099609	184.953720
20396.908989	-1224.422500	1682.075195	94.939705
20396.908989	-1224.422500	1681.051758	238.310806
20396.908989	-1224.422500	1680.027344	269.544495
20396.908989	-1224.422500	1679.002930	-37.589787
20396.908989	-1224.422500	1677.978516	124.196281
20396.908989	-1224.422500	1676.953125	262.528107
20396.908989	-1224.422500	1675.928711	468.387085
20396.908989	-1224.422500	1674.903320	256.798157
20396.908989	-1224.422500	1673.877930	292.307343
20396.908989	-1224.422500	1672.852539	71.409142
20396.908989	-1224.422500	1671.826172	-128.499802
20396.908989	-1224.422500	1670.800781	153.839783
20396.908989	-1224.422500	1669.774414	228.722900
20396.908989	-1224.422500	1668.748047	280.245697
20396.908989	-1224.422500	1667.721680	257.203400
20396.908989	-1224.422500	1666.694336	394.723053
20396.908989	-1224.422500	1665.667969	297.110199
20396.908989	-1224.422500	1664.640625	504.289398
20396.908989	-1224.422500	1663.613281	474.061096
20396.908989	-1224.422500	1662.585938	532.191284
20396.908989	-1224.422500	1661.557617	499.553925
20396.908989	-1224.422500	1660.530273	450.633636
20396.908989	-1224.422500	1659.501953	373.789276
20396.908989	-1224.422500	1658.473633	471.248199
20396.908989	-1224.422500	1657.444336	610.447815
20396.908989	-1224.422500	1656.416016	475.442230
20396.908989	-1224.422500	1655.386719	570.395874
20396.908989	-1224.422500	1654.358398	621.177368
20396.908989	-1224.422500	1653.328125	718.319641
20396.908989	-1224.422500	1652.298828	708.629456
20396.908989	-1224.422500	1651.269531	636.255066
20396.908989	-1224.422500	1650.239258	737.908264
20396.908989	-1224.422500	1649.208984	846.461121
20396.908989	-1224.422500	1648.178711	702.116150
20396.908989	-1224.422500	1647.148438	805.959839
20396.908989	-1224.422500	1646.117188	826.256470
20396.908989	-1224.422500	1645.086914	767.725647
20396.908989	-1224.422500	1644.055664	1131.028442
20396.908989	-1224.422500	1643.024414	975.091003
20396.908989	-1224.422500	1641.992188	1016.123779
20396.908989	-1224.422500	1640.960938	945.956848
20396.908989	-1224.422500	1639.928711	1077.286499
20396.908989	-1224.422500	1638.896484	937.638245
20396.908989	-1224.422500	1637.864258	1416.173706
20396.908989	-1224.422500	1636.832031	1116.792725
20396.908989	-1224.422500	1635.798828	1245.639526
20396.908989	-1224.422500	1634.766602	1568.806763
20396.908989	-1224.422500	1633.733398	1285.744751
20396.908989	-1224.422500	1632.699219	1340.456909
20396.908989	-1224.422500	1631.666016	1270.296387
20396.908989	-1224.422500	1630.632813	1306.519043
20396.908989	-1224.422500	1629.598633	1388.947876
20396.908989	-1224.422500	1628.564453	1369.664917
20396.908989	-1224.422500	1627.530273	1426.649170
20396.908989	-1224.422500	1626.495117	1488.226685
20396.908989	-1224.422500	1625.460938	1413.532959
20396.908989	-1224.422500	1624.425781	1585.958618
20396.908989	-1224.422500	1623.390625	1444.332153
20396.908989	-1224.422500	1622.355469	1849.861816
20396.908989	-1224.422500	1621.319336	1650.558350
20396.908989	-1224.422500	1620.284180	1610.582275
20396.908989	-1224.422500	1619.248047	1346.845215
20396.908989	-1224.422500	1618.211914	1606.825684
20396.908989	-1224.422500	1617.174805	1696.060791
20396.908989	-1224.422500	1616.138672	1764.547852
20396.908989	-1224.422500	1615.101563	1533.339233
20396.908989	-1224.422500	1614.065430	1673.334473
20396.908989	-1224.422500	1613.027344	1863.967773
20396.908989	-1224.422500	1611.990234	1711.293945
20396.908989	-1224.422500	1610.953125	1742.985107
20396.908989	-1224.422500	1609.915039	1687.168335
20396.908989	-1224.422500	1608.876953	1564.633423
20396.908989	-1224.422500	1607.838867	1796.706055
20396.908989	-1224.422500	1606.800781	1998.801392
20396.908989	-1224.422500	1605.761719	1973.025391
20396.908989	-1224.422500	1604.723633	2071.553223
20396.908989	-1224.422500	1603.684570	1896.333740
20396.908989	-1224.422500	1602.644531	2054.688721
20396.908989	-1224.422500	1601.605469	2137.159912
20396.908989	-1224.422500	1600.566406	2024.234375
20396.908989	-1224.422500	1599.526367	2189.502686
20396.908989	-1224.422500	1598.486328	2370.841553
20396.908989	-1224.422500	1597.446289	2356.864258
20396.908989	-1224.422500	1596.405273	2349.816895
20396.908989	-1224.422500	1595.365234	2358.917480
20396.908989	-1224.422500	1594.324219	2342.794678
20396.908989	-1224.422500	1593.283203	2365.760986
20396.908989	-1224.422500	1592.242188	2051.354736
