#X		#Y		#Wave		#Intensity
32192.232660	1437.762500	1999.980469	-77.884850
32192.232660	1437.762500	1999.016602	-42.893200
32192.232660	1437.762500	1998.052734	-6.595638
32192.232660	1437.762500	1997.087891	118.482193
32192.232660	1437.762500	1996.123047	-126.074074
32192.232660	1437.762500	1995.158203	-76.153366
32192.232660	1437.762500	1994.193359	-108.371452
32192.232660	1437.762500	1993.228516	106.677116
32192.232660	1437.762500	1992.262695	16.760265
32192.232660	1437.762500	1991.297852	129.500397
32192.232660	1437.762500	1990.332031	162.667938
32192.232660	1437.762500	1989.366211	64.349487
32192.232660	1437.762500	1988.399414	171.099670
32192.232660	1437.762500	1987.433594	-66.324593
32192.232660	1437.762500	1986.466797	-177.822495
32192.232660	1437.762500	1985.500977	7.144866
32192.232660	1437.762500	1984.534180	-307.598785
32192.232660	1437.762500	1983.567383	-103.433167
32192.232660	1437.762500	1982.599609	-0.914221
32192.232660	1437.762500	1981.632813	-59.281101
32192.232660	1437.762500	1980.665039	-73.392761
32192.232660	1437.762500	1979.697266	8.601673
32192.232660	1437.762500	1978.729492	-23.243660
32192.232660	1437.762500	1977.761719	144.701340
32192.232660	1437.762500	1976.792969	193.899582
32192.232660	1437.762500	1975.825195	-90.298836
32192.232660	1437.762500	1974.856445	133.751068
32192.232660	1437.762500	1973.887695	187.312286
32192.232660	1437.762500	1972.918945	-102.177544
32192.232660	1437.762500	1971.949219	76.861763
32192.232660	1437.762500	1970.980469	100.339607
32192.232660	1437.762500	1970.010742	-51.369286
32192.232660	1437.762500	1969.041016	26.070219
32192.232660	1437.762500	1968.071289	189.604538
32192.232660	1437.762500	1967.101563	-248.239990
32192.232660	1437.762500	1966.130859	237.757401
32192.232660	1437.762500	1965.161133	139.735168
32192.232660	1437.762500	1964.190430	154.920822
32192.232660	1437.762500	1963.219727	290.643311
32192.232660	1437.762500	1962.249023	298.221039
32192.232660	1437.762500	1961.277344	-88.077744
32192.232660	1437.762500	1960.306641	86.727310
32192.232660	1437.762500	1959.334961	303.215454
32192.232660	1437.762500	1958.363281	44.810974
32192.232660	1437.762500	1957.391602	113.530640
32192.232660	1437.762500	1956.419922	152.654739
32192.232660	1437.762500	1955.447266	260.545868
32192.232660	1437.762500	1954.474609	11.940475
32192.232660	1437.762500	1953.501953	70.567596
32192.232660	1437.762500	1952.529297	-40.406387
32192.232660	1437.762500	1951.556641	-193.139450
32192.232660	1437.762500	1950.583984	-110.063148
32192.232660	1437.762500	1949.610352	-31.960548
32192.232660	1437.762500	1948.636719	269.511627
32192.232660	1437.762500	1947.663086	207.542480
32192.232660	1437.762500	1946.689453	-72.858704
32192.232660	1437.762500	1945.715820	137.598480
32192.232660	1437.762500	1944.741211	19.206385
32192.232660	1437.762500	1943.767578	-170.286148
32192.232660	1437.762500	1942.792969	-21.274382
32192.232660	1437.762500	1941.818359	235.564636
32192.232660	1437.762500	1940.842773	-34.781971
32192.232660	1437.762500	1939.868164	-25.600925
32192.232660	1437.762500	1938.892578	12.985402
32192.232660	1437.762500	1937.916992	203.475296
32192.232660	1437.762500	1936.941406	212.619003
32192.232660	1437.762500	1935.965820	72.361938
32192.232660	1437.762500	1934.990234	113.379898
32192.232660	1437.762500	1934.013672	-39.024311
32192.232660	1437.762500	1933.037109	31.400909
32192.232660	1437.762500	1932.060547	72.446274
32192.232660	1437.762500	1931.083984	-23.537071
32192.232660	1437.762500	1930.107422	-222.221512
32192.232660	1437.762500	1929.129883	-14.759753
32192.232660	1437.762500	1928.153320	-44.582684
32192.232660	1437.762500	1927.175781	243.502792
32192.232660	1437.762500	1926.198242	-91.899017
32192.232660	1437.762500	1925.219727	-38.513348
32192.232660	1437.762500	1924.242188	-173.295105
32192.232660	1437.762500	1923.263672	-90.541565
32192.232660	1437.762500	1922.285156	-117.723106
32192.232660	1437.762500	1921.306641	-249.889893
32192.232660	1437.762500	1920.328125	-40.101929
32192.232660	1437.762500	1919.349609	-284.489624
32192.232660	1437.762500	1918.370117	105.924500
32192.232660	1437.762500	1917.391602	-87.086891
32192.232660	1437.762500	1916.412109	-21.336885
32192.232660	1437.762500	1915.431641	120.047791
32192.232660	1437.762500	1914.452148	66.269081
32192.232660	1437.762500	1913.472656	-187.439987
32192.232660	1437.762500	1912.492188	-355.682251
32192.232660	1437.762500	1911.511719	-163.024902
32192.232660	1437.762500	1910.531250	-50.845131
32192.232660	1437.762500	1909.550781	-226.240845
32192.232660	1437.762500	1908.569336	-1.951749
32192.232660	1437.762500	1907.588867	-72.481873
32192.232660	1437.762500	1906.607422	64.070473
32192.232660	1437.762500	1905.625977	120.239075
32192.232660	1437.762500	1904.644531	-103.578201
32192.232660	1437.762500	1903.662109	123.052635
32192.232660	1437.762500	1902.680664	-71.421860
32192.232660	1437.762500	1901.698242	155.169540
32192.232660	1437.762500	1900.715820	418.194183
32192.232660	1437.762500	1899.733398	-179.934677
32192.232660	1437.762500	1898.750000	-201.439468
32192.232660	1437.762500	1897.767578	3.215736
32192.232660	1437.762500	1896.784180	18.194332
32192.232660	1437.762500	1895.800781	123.119186
32192.232660	1437.762500	1894.817383	128.387665
32192.232660	1437.762500	1893.833984	-7.249359
32192.232660	1437.762500	1892.850586	-43.220776
32192.232660	1437.762500	1891.866211	-57.303852
32192.232660	1437.762500	1890.881836	-64.081108
32192.232660	1437.762500	1889.897461	69.973541
32192.232660	1437.762500	1888.913086	119.030678
32192.232660	1437.762500	1887.927734	129.248489
32192.232660	1437.762500	1886.943359	-13.398471
32192.232660	1437.762500	1885.958008	-22.551558
32192.232660	1437.762500	1884.972656	43.501347
32192.232660	1437.762500	1883.987305	12.526364
32192.232660	1437.762500	1883.001953	-64.503372
32192.232660	1437.762500	1882.015625	50.015472
32192.232660	1437.762500	1881.029297	188.730423
32192.232660	1437.762500	1880.042969	-276.022186
32192.232660	1437.762500	1879.056641	-52.499805
32192.232660	1437.762500	1878.070313	-64.043892
32192.232660	1437.762500	1877.083984	-107.075989
32192.232660	1437.762500	1876.096680	-208.213638
32192.232660	1437.762500	1875.109375	34.469868
32192.232660	1437.762500	1874.122070	59.193527
32192.232660	1437.762500	1873.134766	-68.573669
32192.232660	1437.762500	1872.146484	-60.802879
32192.232660	1437.762500	1871.159180	-14.344098
32192.232660	1437.762500	1870.170898	-188.030563
32192.232660	1437.762500	1869.182617	-151.275452
32192.232660	1437.762500	1868.194336	144.159668
32192.232660	1437.762500	1867.205078	132.446045
32192.232660	1437.762500	1866.216797	-154.828690
32192.232660	1437.762500	1865.227539	-52.957035
32192.232660	1437.762500	1864.238281	-9.137283
32192.232660	1437.762500	1863.249023	145.751770
32192.232660	1437.762500	1862.259766	167.716064
32192.232660	1437.762500	1861.269531	73.731331
32192.232660	1437.762500	1860.279297	11.130560
32192.232660	1437.762500	1859.290039	-94.932762
32192.232660	1437.762500	1858.298828	-87.569115
32192.232660	1437.762500	1857.308594	57.285255
32192.232660	1437.762500	1856.318359	-92.278816
32192.232660	1437.762500	1855.327148	100.675011
32192.232660	1437.762500	1854.335938	90.935059
32192.232660	1437.762500	1853.344727	71.505287
32192.232660	1437.762500	1852.353516	167.743195
32192.232660	1437.762500	1851.362305	107.226967
32192.232660	1437.762500	1850.370117	152.709106
32192.232660	1437.762500	1849.377930	-160.869492
32192.232660	1437.762500	1848.385742	144.682648
32192.232660	1437.762500	1847.393555	-139.997681
32192.232660	1437.762500	1846.401367	374.800537
32192.232660	1437.762500	1845.408203	-85.689987
32192.232660	1437.762500	1844.415039	86.975800
32192.232660	1437.762500	1843.421875	33.286304
32192.232660	1437.762500	1842.428711	200.911545
32192.232660	1437.762500	1841.435547	180.757874
32192.232660	1437.762500	1840.441406	-99.225548
32192.232660	1437.762500	1839.448242	99.365990
32192.232660	1437.762500	1838.454102	408.403290
32192.232660	1437.762500	1837.459961	89.837830
32192.232660	1437.762500	1836.464844	14.052106
32192.232660	1437.762500	1835.470703	204.939743
32192.232660	1437.762500	1834.475586	172.236176
32192.232660	1437.762500	1833.480469	139.455780
32192.232660	1437.762500	1832.485352	190.655350
32192.232660	1437.762500	1831.490234	100.077324
32192.232660	1437.762500	1830.495117	273.514862
32192.232660	1437.762500	1829.499023	204.367538
32192.232660	1437.762500	1828.502930	108.751709
32192.232660	1437.762500	1827.506836	73.056335
32192.232660	1437.762500	1826.510742	269.965271
32192.232660	1437.762500	1825.513672	387.549622
32192.232660	1437.762500	1824.517578	152.484436
32192.232660	1437.762500	1823.520508	39.675171
32192.232660	1437.762500	1822.523438	-61.214241
32192.232660	1437.762500	1821.526367	-8.790856
32192.232660	1437.762500	1820.529297	283.117584
32192.232660	1437.762500	1819.531250	263.360931
32192.232660	1437.762500	1818.533203	253.078201
32192.232660	1437.762500	1817.535156	-54.271172
32192.232660	1437.762500	1816.537109	69.360138
32192.232660	1437.762500	1815.539063	295.767517
32192.232660	1437.762500	1814.540039	115.077690
32192.232660	1437.762500	1813.541992	238.247589
32192.232660	1437.762500	1812.542969	313.395325
32192.232660	1437.762500	1811.543945	103.731133
32192.232660	1437.762500	1810.543945	126.006371
32192.232660	1437.762500	1809.544922	241.403595
32192.232660	1437.762500	1808.544922	-56.971699
32192.232660	1437.762500	1807.544922	333.038605
32192.232660	1437.762500	1806.544922	158.767181
32192.232660	1437.762500	1805.544922	3.544807
32192.232660	1437.762500	1804.544922	182.696396
32192.232660	1437.762500	1803.543945	-1.408302
32192.232660	1437.762500	1802.542969	-20.805780
32192.232660	1437.762500	1801.541992	93.369980
32192.232660	1437.762500	1800.541016	147.684235
32192.232660	1437.762500	1799.539063	75.338295
32192.232660	1437.762500	1798.538086	57.765881
32192.232660	1437.762500	1797.536133	25.737856
32192.232660	1437.762500	1796.534180	-6.423892
32192.232660	1437.762500	1795.532227	113.914368
32192.232660	1437.762500	1794.529297	62.377224
32192.232660	1437.762500	1793.527344	-58.418476
32192.232660	1437.762500	1792.524414	230.640625
32192.232660	1437.762500	1791.521484	85.724876
32192.232660	1437.762500	1790.518555	181.354874
32192.232660	1437.762500	1789.514648	95.748344
32192.232660	1437.762500	1788.511719	-116.204803
32192.232660	1437.762500	1787.507813	114.677773
32192.232660	1437.762500	1786.503906	69.145424
32192.232660	1437.762500	1785.500000	-55.079987
32192.232660	1437.762500	1784.496094	-60.417156
32192.232660	1437.762500	1783.491211	-196.787750
32192.232660	1437.762500	1782.486328	225.802383
32192.232660	1437.762500	1781.481445	193.770584
32192.232660	1437.762500	1780.476563	-242.688507
32192.232660	1437.762500	1779.471680	-210.743469
32192.232660	1437.762500	1778.465820	-76.759918
32192.232660	1437.762500	1777.460938	-59.444019
32192.232660	1437.762500	1776.455078	-82.698441
32192.232660	1437.762500	1775.449219	-13.451591
32192.232660	1437.762500	1774.442383	-94.052048
32192.232660	1437.762500	1773.436523	179.088364
32192.232660	1437.762500	1772.429688	17.421309
32192.232660	1437.762500	1771.422852	-9.031683
32192.232660	1437.762500	1770.416016	85.414574
32192.232660	1437.762500	1769.409180	117.957008
32192.232660	1437.762500	1768.402344	10.331634
32192.232660	1437.762500	1767.394531	-154.363754
32192.232660	1437.762500	1766.386719	69.809311
32192.232660	1437.762500	1765.378906	4.426773
32192.232660	1437.762500	1764.371094	199.699371
32192.232660	1437.762500	1763.362305	-167.074448
32192.232660	1437.762500	1762.354492	-401.150421
32192.232660	1437.762500	1761.345703	-87.951134
32192.232660	1437.762500	1760.336914	52.015743
32192.232660	1437.762500	1759.328125	-144.585800
32192.232660	1437.762500	1758.318359	-50.006798
32192.232660	1437.762500	1757.308594	-5.355944
32192.232660	1437.762500	1756.299805	131.444290
32192.232660	1437.762500	1755.290039	-65.712067
32192.232660	1437.762500	1754.279297	139.309357
32192.232660	1437.762500	1753.269531	-114.896416
32192.232660	1437.762500	1752.258789	-108.983078
32192.232660	1437.762500	1751.249023	-214.388107
32192.232660	1437.762500	1750.238281	-121.308777
32192.232660	1437.762500	1749.226563	-30.809792
32192.232660	1437.762500	1748.215820	-4.323693
32192.232660	1437.762500	1747.204102	-105.642357
32192.232660	1437.762500	1746.193359	-51.137093
32192.232660	1437.762500	1745.181641	-202.356216
32192.232660	1437.762500	1744.168945	-275.758820
32192.232660	1437.762500	1743.157227	-101.338257
32192.232660	1437.762500	1742.144531	56.307484
32192.232660	1437.762500	1741.132813	-83.687294
32192.232660	1437.762500	1740.120117	-35.005154
32192.232660	1437.762500	1739.106445	-215.405853
32192.232660	1437.762500	1738.093750	-91.556793
32192.232660	1437.762500	1737.080078	-161.350388
32192.232660	1437.762500	1736.067383	72.945061
32192.232660	1437.762500	1735.053711	82.981506
32192.232660	1437.762500	1734.040039	33.912315
32192.232660	1437.762500	1733.025391	-453.704315
32192.232660	1437.762500	1732.011719	-144.797440
32192.232660	1437.762500	1730.997070	-168.384232
32192.232660	1437.762500	1729.982422	140.009720
32192.232660	1437.762500	1728.967773	-15.837501
32192.232660	1437.762500	1727.952148	131.951996
32192.232660	1437.762500	1726.937500	-207.783630
32192.232660	1437.762500	1725.921875	-69.750381
32192.232660	1437.762500	1724.906250	-386.121429
32192.232660	1437.762500	1723.890625	-10.784572
32192.232660	1437.762500	1722.875000	-2.729183
32192.232660	1437.762500	1721.858398	21.613321
32192.232660	1437.762500	1720.841797	198.640762
32192.232660	1437.762500	1719.825195	-61.856850
32192.232660	1437.762500	1718.808594	204.131241
32192.232660	1437.762500	1717.791992	-28.374449
32192.232660	1437.762500	1716.774414	110.297600
32192.232660	1437.762500	1715.756836	13.835083
32192.232660	1437.762500	1714.739258	-291.786316
32192.232660	1437.762500	1713.721680	22.528261
32192.232660	1437.762500	1712.704102	-212.839233
32192.232660	1437.762500	1711.685547	-37.475662
32192.232660	1437.762500	1710.667969	248.001083
32192.232660	1437.762500	1709.649414	-109.755829
32192.232660	1437.762500	1708.630859	25.165070
32192.232660	1437.762500	1707.611328	-152.102829
32192.232660	1437.762500	1706.592773	50.499512
32192.232660	1437.762500	1705.573242	86.386009
32192.232660	1437.762500	1704.553711	-65.427734
32192.232660	1437.762500	1703.534180	150.665054
32192.232660	1437.762500	1702.513672	61.871464
32192.232660	1437.762500	1701.494141	-120.722717
32192.232660	1437.762500	1700.473633	104.197624
32192.232660	1437.762500	1699.453125	61.900761
32192.232660	1437.762500	1698.432617	206.815842
32192.232660	1437.762500	1697.412109	-170.536179
32192.232660	1437.762500	1696.390625	271.359772
32192.232660	1437.762500	1695.369141	24.915127
32192.232660	1437.762500	1694.347656	31.139162
32192.232660	1437.762500	1693.326172	163.562683
32192.232660	1437.762500	1692.304688	82.966492
32192.232660	1437.762500	1691.282227	-182.480484
32192.232660	1437.762500	1690.260742	15.001701
32192.232660	1437.762500	1689.238281	-5.127675
32192.232660	1437.762500	1688.214844	212.999847
32192.232660	1437.762500	1687.192383	241.674667
32192.232660	1437.762500	1686.168945	-117.613243
32192.232660	1437.762500	1685.146484	-14.369934
32192.232660	1437.762500	1684.123047	284.866852
32192.232660	1437.762500	1683.099609	200.957275
32192.232660	1437.762500	1682.075195	182.313660
32192.232660	1437.762500	1681.051758	86.569504
32192.232660	1437.762500	1680.027344	198.418732
32192.232660	1437.762500	1679.002930	132.805984
32192.232660	1437.762500	1677.978516	729.582642
32192.232660	1437.762500	1676.953125	591.369568
32192.232660	1437.762500	1675.928711	683.973083
32192.232660	1437.762500	1674.903320	464.029755
32192.232660	1437.762500	1673.877930	374.601868
32192.232660	1437.762500	1672.852539	835.083801
32192.232660	1437.762500	1671.826172	768.709473
32192.232660	1437.762500	1670.800781	618.428589
32192.232660	1437.762500	1669.774414	542.625061
32192.232660	1437.762500	1668.748047	399.234680
32192.232660	1437.762500	1667.721680	549.159668
32192.232660	1437.762500	1666.694336	331.143433
32192.232660	1437.762500	1665.667969	769.437317
32192.232660	1437.762500	1664.640625	616.451782
32192.232660	1437.762500	1663.613281	798.441528
32192.232660	1437.762500	1662.585938	459.285309
32192.232660	1437.762500	1661.557617	575.948975
32192.232660	1437.762500	1660.530273	725.067322
32192.232660	1437.762500	1659.501953	1025.132324
32192.232660	1437.762500	1658.473633	897.377563
32192.232660	1437.762500	1657.444336	990.329041
32192.232660	1437.762500	1656.416016	950.780334
32192.232660	1437.762500	1655.386719	1222.408569
32192.232660	1437.762500	1654.358398	978.345398
32192.232660	1437.762500	1653.328125	859.649109
32192.232660	1437.762500	1652.298828	1226.138550
32192.232660	1437.762500	1651.269531	993.626831
32192.232660	1437.762500	1650.239258	1232.190430
32192.232660	1437.762500	1649.208984	1101.721680
32192.232660	1437.762500	1648.178711	1393.421997
32192.232660	1437.762500	1647.148438	1367.240356
32192.232660	1437.762500	1646.117188	1609.968384
32192.232660	1437.762500	1645.086914	1574.392822
32192.232660	1437.762500	1644.055664	1506.316772
32192.232660	1437.762500	1643.024414	1588.857422
32192.232660	1437.762500	1641.992188	1872.876343
32192.232660	1437.762500	1640.960938	2117.395020
32192.232660	1437.762500	1639.928711	2102.368652
32192.232660	1437.762500	1638.896484	2034.061279
32192.232660	1437.762500	1637.864258	1794.431763
32192.232660	1437.762500	1636.832031	2008.542725
32192.232660	1437.762500	1635.798828	2035.074341
32192.232660	1437.762500	1634.766602	2311.481445
32192.232660	1437.762500	1633.733398	2305.512451
32192.232660	1437.762500	1632.699219	2237.058350
32192.232660	1437.762500	1631.666016	2224.134521
32192.232660	1437.762500	1630.632813	2037.805908
32192.232660	1437.762500	1629.598633	2443.263916
32192.232660	1437.762500	1628.564453	2395.584961
32192.232660	1437.762500	1627.530273	2449.583740
32192.232660	1437.762500	1626.495117	2572.838379
32192.232660	1437.762500	1625.460938	2871.605225
32192.232660	1437.762500	1624.425781	2786.890137
32192.232660	1437.762500	1623.390625	2981.578125
32192.232660	1437.762500	1622.355469	2682.200684
32192.232660	1437.762500	1621.319336	3176.849609
32192.232660	1437.762500	1620.284180	2958.326172
32192.232660	1437.762500	1619.248047	2855.223877
32192.232660	1437.762500	1618.211914	3114.309082
32192.232660	1437.762500	1617.174805	3239.527100
32192.232660	1437.762500	1616.138672	3293.260986
32192.232660	1437.762500	1615.101563	3243.231445
32192.232660	1437.762500	1614.065430	3204.790039
32192.232660	1437.762500	1613.027344	3233.166504
32192.232660	1437.762500	1611.990234	3256.971191
32192.232660	1437.762500	1610.953125	3587.151855
32192.232660	1437.762500	1609.915039	3557.943848
32192.232660	1437.762500	1608.876953	3356.084717
32192.232660	1437.762500	1607.838867	3467.424561
32192.232660	1437.762500	1606.800781	3544.231201
32192.232660	1437.762500	1605.761719	3752.192627
32192.232660	1437.762500	1604.723633	3884.208496
32192.232660	1437.762500	1603.684570	3845.971680
32192.232660	1437.762500	1602.644531	3789.370605
32192.232660	1437.762500	1601.605469	4054.777588
32192.232660	1437.762500	1600.566406	3533.886719
32192.232660	1437.762500	1599.526367	3801.614990
32192.232660	1437.762500	1598.486328	4060.100342
32192.232660	1437.762500	1597.446289	4052.014648
32192.232660	1437.762500	1596.405273	3811.955078
32192.232660	1437.762500	1595.365234	3886.718506
32192.232660	1437.762500	1594.324219	3674.459473
32192.232660	1437.762500	1593.283203	3873.298096
32192.232660	1437.762500	1592.242188	4060.646729
32192.232660	1437.762500	1591.200195	3802.752686
32192.232660	1437.762500	1590.159180	3666.658447
32192.232660	1437.762500	1589.117188	3659.132568
32192.232660	1437.762500	1588.075195	3656.269531
32192.232660	1437.762500	1587.032227	3598.428223
32192.232660	1437.762500	1585.990234	3568.218994
32192.232660	1437.762500	1584.947266	3732.920410
