#X		#Y		#Wave		#Intensity
31131.414043	1154.046500	1999.980469	123.857117
31131.414043	1154.046500	1999.016602	221.267471
31131.414043	1154.046500	1998.052734	-54.796108
31131.414043	1154.046500	1997.087891	-63.373787
31131.414043	1154.046500	1996.123047	-5.303184
31131.414043	1154.046500	1995.158203	228.383804
31131.414043	1154.046500	1994.193359	95.189308
31131.414043	1154.046500	1993.228516	53.438503
31131.414043	1154.046500	1992.262695	-10.796497
31131.414043	1154.046500	1991.297852	-35.618793
31131.414043	1154.046500	1990.332031	-139.831818
31131.414043	1154.046500	1989.366211	134.385590
31131.414043	1154.046500	1988.399414	5.050862
31131.414043	1154.046500	1987.433594	-198.630936
31131.414043	1154.046500	1986.466797	20.482821
31131.414043	1154.046500	1985.500977	182.469223
31131.414043	1154.046500	1984.534180	47.572887
31131.414043	1154.046500	1983.567383	132.547379
31131.414043	1154.046500	1982.599609	54.235867
31131.414043	1154.046500	1981.632813	59.809952
31131.414043	1154.046500	1980.665039	-164.498795
31131.414043	1154.046500	1979.697266	191.556915
31131.414043	1154.046500	1978.729492	75.691650
31131.414043	1154.046500	1977.761719	189.355713
31131.414043	1154.046500	1976.792969	169.559601
31131.414043	1154.046500	1975.825195	-25.576981
31131.414043	1154.046500	1974.856445	77.826050
31131.414043	1154.046500	1973.887695	136.676163
31131.414043	1154.046500	1972.918945	81.937164
31131.414043	1154.046500	1971.949219	-7.404521
31131.414043	1154.046500	1970.980469	4.289811
31131.414043	1154.046500	1970.010742	109.573418
31131.414043	1154.046500	1969.041016	-26.818657
31131.414043	1154.046500	1968.071289	36.374649
31131.414043	1154.046500	1967.101563	-43.437752
31131.414043	1154.046500	1966.130859	39.296761
31131.414043	1154.046500	1965.161133	114.543373
31131.414043	1154.046500	1964.190430	105.972389
31131.414043	1154.046500	1963.219727	-1.138371
31131.414043	1154.046500	1962.249023	0.045243
31131.414043	1154.046500	1961.277344	-3.746739
31131.414043	1154.046500	1960.306641	17.019791
31131.414043	1154.046500	1959.334961	-173.849228
31131.414043	1154.046500	1958.363281	132.187012
31131.414043	1154.046500	1957.391602	-19.366953
31131.414043	1154.046500	1956.419922	52.856125
31131.414043	1154.046500	1955.447266	24.222172
31131.414043	1154.046500	1954.474609	167.624313
31131.414043	1154.046500	1953.501953	47.991531
31131.414043	1154.046500	1952.529297	127.397743
31131.414043	1154.046500	1951.556641	49.528111
31131.414043	1154.046500	1950.583984	-60.263367
31131.414043	1154.046500	1949.610352	-42.337994
31131.414043	1154.046500	1948.636719	51.675526
31131.414043	1154.046500	1947.663086	0.808196
31131.414043	1154.046500	1946.689453	87.388313
31131.414043	1154.046500	1945.715820	26.694778
31131.414043	1154.046500	1944.741211	142.659271
31131.414043	1154.046500	1943.767578	-48.042568
31131.414043	1154.046500	1942.792969	9.021804
31131.414043	1154.046500	1941.818359	-51.635658
31131.414043	1154.046500	1940.842773	-136.788162
31131.414043	1154.046500	1939.868164	15.849533
31131.414043	1154.046500	1938.892578	-47.225883
31131.414043	1154.046500	1937.916992	51.438202
31131.414043	1154.046500	1936.941406	5.535554
31131.414043	1154.046500	1935.965820	-116.272339
31131.414043	1154.046500	1934.990234	139.091949
31131.414043	1154.046500	1934.013672	-12.060740
31131.414043	1154.046500	1933.037109	-38.303547
31131.414043	1154.046500	1932.060547	94.558449
31131.414043	1154.046500	1931.083984	-29.553320
31131.414043	1154.046500	1930.107422	29.885530
31131.414043	1154.046500	1929.129883	-25.651804
31131.414043	1154.046500	1928.153320	-44.468925
31131.414043	1154.046500	1927.175781	63.885418
31131.414043	1154.046500	1926.198242	-25.807898
31131.414043	1154.046500	1925.219727	-47.011868
31131.414043	1154.046500	1924.242188	129.758148
31131.414043	1154.046500	1923.263672	98.794121
31131.414043	1154.046500	1922.285156	-49.398705
31131.414043	1154.046500	1921.306641	-14.334517
31131.414043	1154.046500	1920.328125	164.813293
31131.414043	1154.046500	1919.349609	24.072922
31131.414043	1154.046500	1918.370117	83.572983
31131.414043	1154.046500	1917.391602	50.327770
31131.414043	1154.046500	1916.412109	202.568192
31131.414043	1154.046500	1915.431641	27.850672
31131.414043	1154.046500	1914.452148	48.360153
31131.414043	1154.046500	1913.472656	190.823212
31131.414043	1154.046500	1912.492188	162.569473
31131.414043	1154.046500	1911.511719	-33.866760
31131.414043	1154.046500	1910.531250	-101.024536
31131.414043	1154.046500	1909.550781	-153.513748
31131.414043	1154.046500	1908.569336	-45.151802
31131.414043	1154.046500	1907.588867	-17.199131
31131.414043	1154.046500	1906.607422	-25.770494
31131.414043	1154.046500	1905.625977	97.180756
31131.414043	1154.046500	1904.644531	49.677380
31131.414043	1154.046500	1903.662109	-61.078075
31131.414043	1154.046500	1902.680664	22.931410
31131.414043	1154.046500	1901.698242	2.295726
31131.414043	1154.046500	1900.715820	59.539776
31131.414043	1154.046500	1899.733398	-34.029175
31131.414043	1154.046500	1898.750000	32.966194
31131.414043	1154.046500	1897.767578	151.017166
31131.414043	1154.046500	1896.784180	6.486630
31131.414043	1154.046500	1895.800781	20.017916
31131.414043	1154.046500	1894.817383	40.851265
31131.414043	1154.046500	1893.833984	-71.940109
31131.414043	1154.046500	1892.850586	-36.488556
31131.414043	1154.046500	1891.866211	-61.754711
31131.414043	1154.046500	1890.881836	48.990982
31131.414043	1154.046500	1889.897461	9.180537
31131.414043	1154.046500	1888.913086	112.617058
31131.414043	1154.046500	1887.927734	-123.748489
31131.414043	1154.046500	1886.943359	-136.772583
31131.414043	1154.046500	1885.958008	-18.772409
31131.414043	1154.046500	1884.972656	-31.788145
31131.414043	1154.046500	1883.987305	-18.111513
31131.414043	1154.046500	1883.001953	206.518982
31131.414043	1154.046500	1882.015625	91.679733
31131.414043	1154.046500	1881.029297	102.929115
31131.414043	1154.046500	1880.042969	58.445053
31131.414043	1154.046500	1879.056641	-92.622841
31131.414043	1154.046500	1878.070313	-40.143513
31131.414043	1154.046500	1877.083984	-16.742289
31131.414043	1154.046500	1876.096680	6.654774
31131.414043	1154.046500	1875.109375	-47.427799
31131.414043	1154.046500	1874.122070	-108.748665
31131.414043	1154.046500	1873.134766	38.089291
31131.414043	1154.046500	1872.146484	10.654586
31131.414043	1154.046500	1871.159180	36.453583
31131.414043	1154.046500	1870.170898	1.772127
31131.414043	1154.046500	1869.182617	199.264069
31131.414043	1154.046500	1868.194336	-11.945500
31131.414043	1154.046500	1867.205078	50.092754
31131.414043	1154.046500	1866.216797	-3.912685
31131.414043	1154.046500	1865.227539	176.501709
31131.414043	1154.046500	1864.238281	23.422377
31131.414043	1154.046500	1863.249023	-95.787827
31131.414043	1154.046500	1862.259766	-43.483345
31131.414043	1154.046500	1861.269531	-66.063538
31131.414043	1154.046500	1860.279297	85.182549
31131.414043	1154.046500	1859.290039	231.532822
31131.414043	1154.046500	1858.298828	100.280212
31131.414043	1154.046500	1857.308594	29.386253
31131.414043	1154.046500	1856.318359	115.315804
31131.414043	1154.046500	1855.327148	61.302219
31131.414043	1154.046500	1854.335938	57.935917
31131.414043	1154.046500	1853.344727	40.087528
31131.414043	1154.046500	1852.353516	109.011963
31131.414043	1154.046500	1851.362305	216.455353
31131.414043	1154.046500	1850.370117	-37.622452
31131.414043	1154.046500	1849.377930	-50.695927
31131.414043	1154.046500	1848.385742	15.705672
31131.414043	1154.046500	1847.393555	149.494980
31131.414043	1154.046500	1846.401367	-20.188799
31131.414043	1154.046500	1845.408203	99.064751
31131.414043	1154.046500	1844.415039	-32.081997
31131.414043	1154.046500	1843.421875	-81.382408
31131.414043	1154.046500	1842.428711	81.047348
31131.414043	1154.046500	1841.435547	192.869446
31131.414043	1154.046500	1840.441406	30.425821
31131.414043	1154.046500	1839.448242	-18.962856
31131.414043	1154.046500	1838.454102	56.660656
31131.414043	1154.046500	1837.459961	-64.892624
31131.414043	1154.046500	1836.464844	-13.387293
31131.414043	1154.046500	1835.470703	333.627930
31131.414043	1154.046500	1834.475586	-9.038840
31131.414043	1154.046500	1833.480469	-0.913373
31131.414043	1154.046500	1832.485352	136.858932
31131.414043	1154.046500	1831.490234	118.467644
31131.414043	1154.046500	1830.495117	208.076447
31131.414043	1154.046500	1829.499023	184.801407
31131.414043	1154.046500	1828.502930	79.902611
31131.414043	1154.046500	1827.506836	214.935867
31131.414043	1154.046500	1826.510742	97.994102
31131.414043	1154.046500	1825.513672	237.685913
31131.414043	1154.046500	1824.517578	221.413193
31131.414043	1154.046500	1823.520508	147.561890
31131.414043	1154.046500	1822.523438	140.811340
31131.414043	1154.046500	1821.526367	201.123184
31131.414043	1154.046500	1820.529297	297.308136
31131.414043	1154.046500	1819.531250	24.468756
31131.414043	1154.046500	1818.533203	149.298233
31131.414043	1154.046500	1817.535156	151.895935
31131.414043	1154.046500	1816.537109	132.893448
31131.414043	1154.046500	1815.539063	190.453110
31131.414043	1154.046500	1814.540039	173.741745
31131.414043	1154.046500	1813.541992	197.667206
31131.414043	1154.046500	1812.542969	144.967575
31131.414043	1154.046500	1811.543945	192.703186
31131.414043	1154.046500	1810.543945	106.432747
31131.414043	1154.046500	1809.544922	-80.288429
31131.414043	1154.046500	1808.544922	-8.795885
31131.414043	1154.046500	1807.544922	-76.023186
31131.414043	1154.046500	1806.544922	7.278063
31131.414043	1154.046500	1805.544922	147.835266
31131.414043	1154.046500	1804.544922	-17.502552
31131.414043	1154.046500	1803.543945	67.952881
31131.414043	1154.046500	1802.542969	100.779572
31131.414043	1154.046500	1801.541992	102.495499
31131.414043	1154.046500	1800.541016	51.633316
31131.414043	1154.046500	1799.539063	151.087677
31131.414043	1154.046500	1798.538086	123.974808
31131.414043	1154.046500	1797.536133	-158.470154
31131.414043	1154.046500	1796.534180	9.955240
31131.414043	1154.046500	1795.532227	197.332031
31131.414043	1154.046500	1794.529297	26.908632
31131.414043	1154.046500	1793.527344	102.036819
31131.414043	1154.046500	1792.524414	117.480965
31131.414043	1154.046500	1791.521484	4.167985
31131.414043	1154.046500	1790.518555	100.502251
31131.414043	1154.046500	1789.514648	196.731430
31131.414043	1154.046500	1788.511719	-104.886734
31131.414043	1154.046500	1787.507813	131.704529
31131.414043	1154.046500	1786.503906	199.100983
31131.414043	1154.046500	1785.500000	185.471695
31131.414043	1154.046500	1784.496094	207.477463
31131.414043	1154.046500	1783.491211	184.193283
31131.414043	1154.046500	1782.486328	179.880768
31131.414043	1154.046500	1781.481445	9.001015
31131.414043	1154.046500	1780.476563	83.061073
31131.414043	1154.046500	1779.471680	313.947357
31131.414043	1154.046500	1778.465820	199.978302
31131.414043	1154.046500	1777.460938	-113.662491
31131.414043	1154.046500	1776.455078	159.686920
31131.414043	1154.046500	1775.449219	81.235466
31131.414043	1154.046500	1774.442383	-70.898376
31131.414043	1154.046500	1773.436523	76.199600
31131.414043	1154.046500	1772.429688	213.667892
31131.414043	1154.046500	1771.422852	332.018982
31131.414043	1154.046500	1770.416016	203.398712
31131.414043	1154.046500	1769.409180	1.186816
31131.414043	1154.046500	1768.402344	195.218124
31131.414043	1154.046500	1767.394531	61.729370
31131.414043	1154.046500	1766.386719	39.691959
31131.414043	1154.046500	1765.378906	216.781082
31131.414043	1154.046500	1764.371094	66.546974
31131.414043	1154.046500	1763.362305	141.483459
31131.414043	1154.046500	1762.354492	171.292068
31131.414043	1154.046500	1761.345703	-26.464781
31131.414043	1154.046500	1760.336914	69.545631
31131.414043	1154.046500	1759.328125	-54.837341
31131.414043	1154.046500	1758.318359	-105.837914
31131.414043	1154.046500	1757.308594	-7.726623
31131.414043	1154.046500	1756.299805	97.379623
31131.414043	1154.046500	1755.290039	-48.517593
31131.414043	1154.046500	1754.279297	49.298866
31131.414043	1154.046500	1753.269531	151.740402
31131.414043	1154.046500	1752.258789	-53.449097
31131.414043	1154.046500	1751.249023	129.235336
31131.414043	1154.046500	1750.238281	16.198965
31131.414043	1154.046500	1749.226563	-68.504593
31131.414043	1154.046500	1748.215820	106.759972
31131.414043	1154.046500	1747.204102	-27.704508
31131.414043	1154.046500	1746.193359	-48.773167
31131.414043	1154.046500	1745.181641	123.797974
31131.414043	1154.046500	1744.168945	93.103149
31131.414043	1154.046500	1743.157227	-55.719639
31131.414043	1154.046500	1742.144531	-107.764175
31131.414043	1154.046500	1741.132813	-34.749088
31131.414043	1154.046500	1740.120117	49.960106
31131.414043	1154.046500	1739.106445	118.040695
31131.414043	1154.046500	1738.093750	-174.924713
31131.414043	1154.046500	1737.080078	25.116457
31131.414043	1154.046500	1736.067383	-112.218246
31131.414043	1154.046500	1735.053711	-152.907257
31131.414043	1154.046500	1734.040039	-151.219711
31131.414043	1154.046500	1733.025391	-50.619492
31131.414043	1154.046500	1732.011719	73.441711
31131.414043	1154.046500	1730.997070	27.745226
31131.414043	1154.046500	1729.982422	-13.293682
31131.414043	1154.046500	1728.967773	-162.722015
31131.414043	1154.046500	1727.952148	-210.918945
31131.414043	1154.046500	1726.937500	30.408667
31131.414043	1154.046500	1725.921875	-48.544842
31131.414043	1154.046500	1724.906250	136.035568
31131.414043	1154.046500	1723.890625	21.662056
31131.414043	1154.046500	1722.875000	-43.334873
31131.414043	1154.046500	1721.858398	-7.246832
31131.414043	1154.046500	1720.841797	-15.918627
31131.414043	1154.046500	1719.825195	97.601868
31131.414043	1154.046500	1718.808594	-139.230270
31131.414043	1154.046500	1717.791992	65.794922
31131.414043	1154.046500	1716.774414	-100.587074
31131.414043	1154.046500	1715.756836	-46.139172
31131.414043	1154.046500	1714.739258	-24.660162
31131.414043	1154.046500	1713.721680	-90.143166
31131.414043	1154.046500	1712.704102	-87.574936
31131.414043	1154.046500	1711.685547	62.812469
31131.414043	1154.046500	1710.667969	-52.126091
31131.414043	1154.046500	1709.649414	15.942563
31131.414043	1154.046500	1708.630859	74.538712
31131.414043	1154.046500	1707.611328	-3.004919
31131.414043	1154.046500	1706.592773	-19.595701
31131.414043	1154.046500	1705.573242	-26.868629
31131.414043	1154.046500	1704.553711	22.065493
31131.414043	1154.046500	1703.534180	38.108170
31131.414043	1154.046500	1702.513672	40.017681
31131.414043	1154.046500	1701.494141	67.649933
31131.414043	1154.046500	1700.473633	172.510071
31131.414043	1154.046500	1699.453125	64.144836
31131.414043	1154.046500	1698.432617	-53.600876
31131.414043	1154.046500	1697.412109	172.796066
31131.414043	1154.046500	1696.390625	-1.220253
31131.414043	1154.046500	1695.369141	35.401020
31131.414043	1154.046500	1694.347656	34.518013
31131.414043	1154.046500	1693.326172	-36.598061
31131.414043	1154.046500	1692.304688	-96.044136
31131.414043	1154.046500	1691.282227	-64.326050
31131.414043	1154.046500	1690.260742	72.549004
31131.414043	1154.046500	1689.238281	90.096916
31131.414043	1154.046500	1688.214844	67.849564
31131.414043	1154.046500	1687.192383	155.394745
31131.414043	1154.046500	1686.168945	20.908787
31131.414043	1154.046500	1685.146484	84.977226
31131.414043	1154.046500	1684.123047	62.559437
31131.414043	1154.046500	1683.099609	-4.257945
31131.414043	1154.046500	1682.075195	19.939842
31131.414043	1154.046500	1681.051758	13.751876
31131.414043	1154.046500	1680.027344	96.188499
31131.414043	1154.046500	1679.002930	99.226189
31131.414043	1154.046500	1677.978516	-86.722130
31131.414043	1154.046500	1676.953125	226.438797
31131.414043	1154.046500	1675.928711	168.702499
31131.414043	1154.046500	1674.903320	38.670784
31131.414043	1154.046500	1673.877930	85.793968
31131.414043	1154.046500	1672.852539	83.923470
31131.414043	1154.046500	1671.826172	156.566040
31131.414043	1154.046500	1670.800781	222.165756
31131.414043	1154.046500	1669.774414	168.913971
31131.414043	1154.046500	1668.748047	31.819775
31131.414043	1154.046500	1667.721680	234.653564
31131.414043	1154.046500	1666.694336	202.270126
31131.414043	1154.046500	1665.667969	279.257355
31131.414043	1154.046500	1664.640625	232.855240
31131.414043	1154.046500	1663.613281	326.021240
31131.414043	1154.046500	1662.585938	240.027710
31131.414043	1154.046500	1661.557617	298.207886
31131.414043	1154.046500	1660.530273	381.922363
31131.414043	1154.046500	1659.501953	340.042725
31131.414043	1154.046500	1658.473633	456.192657
31131.414043	1154.046500	1657.444336	446.785309
31131.414043	1154.046500	1656.416016	383.934448
31131.414043	1154.046500	1655.386719	409.339630
31131.414043	1154.046500	1654.358398	378.987701
31131.414043	1154.046500	1653.328125	404.330261
31131.414043	1154.046500	1652.298828	420.367737
31131.414043	1154.046500	1651.269531	436.378510
31131.414043	1154.046500	1650.239258	501.086273
31131.414043	1154.046500	1649.208984	459.027954
31131.414043	1154.046500	1648.178711	472.639984
31131.414043	1154.046500	1647.148438	407.380371
31131.414043	1154.046500	1646.117188	692.245178
31131.414043	1154.046500	1645.086914	358.020294
31131.414043	1154.046500	1644.055664	758.648254
31131.414043	1154.046500	1643.024414	519.516602
31131.414043	1154.046500	1641.992188	676.648743
31131.414043	1154.046500	1640.960938	606.705750
31131.414043	1154.046500	1639.928711	495.083038
31131.414043	1154.046500	1638.896484	529.374390
31131.414043	1154.046500	1637.864258	672.455627
31131.414043	1154.046500	1636.832031	644.190063
31131.414043	1154.046500	1635.798828	727.001465
31131.414043	1154.046500	1634.766602	897.709045
31131.414043	1154.046500	1633.733398	633.432983
31131.414043	1154.046500	1632.699219	785.562866
31131.414043	1154.046500	1631.666016	764.209900
31131.414043	1154.046500	1630.632813	853.838928
31131.414043	1154.046500	1629.598633	1042.819092
31131.414043	1154.046500	1628.564453	787.998901
31131.414043	1154.046500	1627.530273	979.230896
31131.414043	1154.046500	1626.495117	913.952515
31131.414043	1154.046500	1625.460938	871.808228
31131.414043	1154.046500	1624.425781	954.377136
31131.414043	1154.046500	1623.390625	815.271484
31131.414043	1154.046500	1622.355469	941.690430
31131.414043	1154.046500	1621.319336	1104.983521
31131.414043	1154.046500	1620.284180	1035.176147
31131.414043	1154.046500	1619.248047	1115.352173
31131.414043	1154.046500	1618.211914	1209.345581
31131.414043	1154.046500	1617.174805	1162.630127
31131.414043	1154.046500	1616.138672	1328.077393
31131.414043	1154.046500	1615.101563	1173.035400
31131.414043	1154.046500	1614.065430	1414.500732
31131.414043	1154.046500	1613.027344	1314.825562
31131.414043	1154.046500	1611.990234	1371.878296
31131.414043	1154.046500	1610.953125	1392.069214
31131.414043	1154.046500	1609.915039	1548.137817
31131.414043	1154.046500	1608.876953	1561.406006
31131.414043	1154.046500	1607.838867	1763.459717
31131.414043	1154.046500	1606.800781	1553.458984
31131.414043	1154.046500	1605.761719	1792.286865
31131.414043	1154.046500	1604.723633	1966.630981
31131.414043	1154.046500	1603.684570	1731.466797
31131.414043	1154.046500	1602.644531	1737.892822
31131.414043	1154.046500	1601.605469	1912.207764
31131.414043	1154.046500	1600.566406	1778.419067
31131.414043	1154.046500	1599.526367	1658.490723
31131.414043	1154.046500	1598.486328	1789.124512
31131.414043	1154.046500	1597.446289	1832.426636
31131.414043	1154.046500	1596.405273	1675.878174
31131.414043	1154.046500	1595.365234	1753.695435
31131.414043	1154.046500	1594.324219	1604.172729
31131.414043	1154.046500	1593.283203	1741.717285
31131.414043	1154.046500	1592.242188	1537.230469
31131.414043	1154.046500	1591.200195	1624.303711
31131.414043	1154.046500	1590.159180	1610.428467
31131.414043	1154.046500	1589.117188	1715.873901
31131.414043	1154.046500	1588.075195	1731.864502
31131.414043	1154.046500	1587.032227	1575.892456
31131.414043	1154.046500	1585.990234	1901.490723
31131.414043	1154.046500	1584.947266	1812.096680
31131.414043	1154.046500	1583.904297	1566.936646
31131.414043	1154.046500	1582.861328	1489.179688
