#X		#Y		#Wave		#Intensity
23209.211223	2438.689500	1999.980469	-81.029053
23209.211223	2438.689500	1999.016602	13.258698
23209.211223	2438.689500	1998.052734	-402.925842
23209.211223	2438.689500	1997.087891	45.080025
23209.211223	2438.689500	1996.123047	-77.762962
23209.211223	2438.689500	1995.158203	-310.351013
23209.211223	2438.689500	1994.193359	-186.971436
23209.211223	2438.689500	1993.228516	-245.152344
23209.211223	2438.689500	1992.262695	64.875832
23209.211223	2438.689500	1991.297852	86.940033
23209.211223	2438.689500	1990.332031	261.772400
23209.211223	2438.689500	1989.366211	312.161896
23209.211223	2438.689500	1988.399414	84.822769
23209.211223	2438.689500	1987.433594	178.507309
23209.211223	2438.689500	1986.466797	130.610519
23209.211223	2438.689500	1985.500977	-229.395065
23209.211223	2438.689500	1984.534180	156.782669
23209.211223	2438.689500	1983.567383	248.152512
23209.211223	2438.689500	1982.599609	301.914856
23209.211223	2438.689500	1981.632813	305.744049
23209.211223	2438.689500	1980.665039	588.248535
23209.211223	2438.689500	1979.697266	255.195419
23209.211223	2438.689500	1978.729492	225.563400
23209.211223	2438.689500	1977.761719	114.047615
23209.211223	2438.689500	1976.792969	318.134308
23209.211223	2438.689500	1975.825195	89.850395
23209.211223	2438.689500	1974.856445	409.081848
23209.211223	2438.689500	1973.887695	175.203339
23209.211223	2438.689500	1972.918945	116.202988
23209.211223	2438.689500	1971.949219	108.686386
23209.211223	2438.689500	1970.980469	362.229034
23209.211223	2438.689500	1970.010742	124.785736
23209.211223	2438.689500	1969.041016	200.180374
23209.211223	2438.689500	1968.071289	65.803505
23209.211223	2438.689500	1967.101563	44.558998
23209.211223	2438.689500	1966.130859	116.685371
23209.211223	2438.689500	1965.161133	119.589432
23209.211223	2438.689500	1964.190430	114.880905
23209.211223	2438.689500	1963.219727	164.131241
23209.211223	2438.689500	1962.249023	129.471161
23209.211223	2438.689500	1961.277344	102.015434
23209.211223	2438.689500	1960.306641	59.634209
23209.211223	2438.689500	1959.334961	100.748093
23209.211223	2438.689500	1958.363281	-94.448982
23209.211223	2438.689500	1957.391602	180.012009
23209.211223	2438.689500	1956.419922	-99.009613
23209.211223	2438.689500	1955.447266	133.291595
23209.211223	2438.689500	1954.474609	289.192993
23209.211223	2438.689500	1953.501953	83.674133
23209.211223	2438.689500	1952.529297	288.458496
23209.211223	2438.689500	1951.556641	377.614899
23209.211223	2438.689500	1950.583984	-66.325180
23209.211223	2438.689500	1949.610352	241.254013
23209.211223	2438.689500	1948.636719	136.173752
23209.211223	2438.689500	1947.663086	33.525269
23209.211223	2438.689500	1946.689453	281.827301
23209.211223	2438.689500	1945.715820	73.570976
23209.211223	2438.689500	1944.741211	142.581451
23209.211223	2438.689500	1943.767578	206.629990
23209.211223	2438.689500	1942.792969	-21.226028
23209.211223	2438.689500	1941.818359	172.727875
23209.211223	2438.689500	1940.842773	-175.209518
23209.211223	2438.689500	1939.868164	-94.080215
23209.211223	2438.689500	1938.892578	134.045197
23209.211223	2438.689500	1937.916992	-108.353989
23209.211223	2438.689500	1936.941406	-78.739861
23209.211223	2438.689500	1935.965820	19.448708
23209.211223	2438.689500	1934.990234	222.913254
23209.211223	2438.689500	1934.013672	51.708920
23209.211223	2438.689500	1933.037109	-293.213379
23209.211223	2438.689500	1932.060547	-94.646843
23209.211223	2438.689500	1931.083984	89.187439
23209.211223	2438.689500	1930.107422	187.355270
23209.211223	2438.689500	1929.129883	199.899246
23209.211223	2438.689500	1928.153320	-156.809326
23209.211223	2438.689500	1927.175781	71.043724
23209.211223	2438.689500	1926.198242	95.943008
23209.211223	2438.689500	1925.219727	186.866165
23209.211223	2438.689500	1924.242188	258.255707
23209.211223	2438.689500	1923.263672	-100.369392
23209.211223	2438.689500	1922.285156	-202.306625
23209.211223	2438.689500	1921.306641	-72.120613
23209.211223	2438.689500	1920.328125	-10.305821
23209.211223	2438.689500	1919.349609	-187.729919
23209.211223	2438.689500	1918.370117	-147.779266
23209.211223	2438.689500	1917.391602	133.840347
23209.211223	2438.689500	1916.412109	-118.989113
23209.211223	2438.689500	1915.431641	-52.065369
23209.211223	2438.689500	1914.452148	-270.495422
23209.211223	2438.689500	1913.472656	-71.748184
23209.211223	2438.689500	1912.492188	390.324677
23209.211223	2438.689500	1911.511719	294.009399
23209.211223	2438.689500	1910.531250	129.544571
23209.211223	2438.689500	1909.550781	-120.089218
23209.211223	2438.689500	1908.569336	76.310844
23209.211223	2438.689500	1907.588867	72.946564
23209.211223	2438.689500	1906.607422	-278.649628
23209.211223	2438.689500	1905.625977	-160.067596
23209.211223	2438.689500	1904.644531	-82.856567
23209.211223	2438.689500	1903.662109	79.580589
23209.211223	2438.689500	1902.680664	154.405441
23209.211223	2438.689500	1901.698242	-225.775284
23209.211223	2438.689500	1900.715820	34.094265
23209.211223	2438.689500	1899.733398	-177.967316
23209.211223	2438.689500	1898.750000	164.595947
23209.211223	2438.689500	1897.767578	37.805817
23209.211223	2438.689500	1896.784180	-35.400700
23209.211223	2438.689500	1895.800781	3.283419
23209.211223	2438.689500	1894.817383	-181.568954
23209.211223	2438.689500	1893.833984	-62.588131
23209.211223	2438.689500	1892.850586	158.425552
23209.211223	2438.689500	1891.866211	-28.634275
23209.211223	2438.689500	1890.881836	-62.592087
23209.211223	2438.689500	1889.897461	-69.785545
23209.211223	2438.689500	1888.913086	-16.247673
23209.211223	2438.689500	1887.927734	-139.860321
23209.211223	2438.689500	1886.943359	141.845581
23209.211223	2438.689500	1885.958008	-187.888000
23209.211223	2438.689500	1884.972656	-151.194809
23209.211223	2438.689500	1883.987305	-61.127708
23209.211223	2438.689500	1883.001953	-101.997444
23209.211223	2438.689500	1882.015625	162.630417
23209.211223	2438.689500	1881.029297	121.787773
23209.211223	2438.689500	1880.042969	61.599277
23209.211223	2438.689500	1879.056641	13.568441
23209.211223	2438.689500	1878.070313	-228.217270
23209.211223	2438.689500	1877.083984	-125.973183
23209.211223	2438.689500	1876.096680	90.057266
23209.211223	2438.689500	1875.109375	-236.301498
23209.211223	2438.689500	1874.122070	219.332748
23209.211223	2438.689500	1873.134766	-17.364836
23209.211223	2438.689500	1872.146484	135.604370
23209.211223	2438.689500	1871.159180	-110.657356
23209.211223	2438.689500	1870.170898	-163.325974
23209.211223	2438.689500	1869.182617	-136.171051
23209.211223	2438.689500	1868.194336	-290.373077
23209.211223	2438.689500	1867.205078	-106.087891
23209.211223	2438.689500	1866.216797	-151.494553
23209.211223	2438.689500	1865.227539	-47.073891
23209.211223	2438.689500	1864.238281	16.214947
23209.211223	2438.689500	1863.249023	200.244110
23209.211223	2438.689500	1862.259766	210.288071
23209.211223	2438.689500	1861.269531	-122.592407
23209.211223	2438.689500	1860.279297	-52.192421
23209.211223	2438.689500	1859.290039	73.671532
23209.211223	2438.689500	1858.298828	322.529053
23209.211223	2438.689500	1857.308594	269.645477
23209.211223	2438.689500	1856.318359	226.390030
23209.211223	2438.689500	1855.327148	-29.151434
23209.211223	2438.689500	1854.335938	161.495651
23209.211223	2438.689500	1853.344727	-36.167770
23209.211223	2438.689500	1852.353516	-40.955215
23209.211223	2438.689500	1851.362305	45.790508
23209.211223	2438.689500	1850.370117	-89.255157
23209.211223	2438.689500	1849.377930	209.363022
23209.211223	2438.689500	1848.385742	122.390114
23209.211223	2438.689500	1847.393555	117.266518
23209.211223	2438.689500	1846.401367	-135.942352
23209.211223	2438.689500	1845.408203	-8.750851
23209.211223	2438.689500	1844.415039	-156.084274
23209.211223	2438.689500	1843.421875	21.447016
23209.211223	2438.689500	1842.428711	333.570526
23209.211223	2438.689500	1841.435547	-158.001770
23209.211223	2438.689500	1840.441406	76.895065
23209.211223	2438.689500	1839.448242	208.209366
23209.211223	2438.689500	1838.454102	84.520050
23209.211223	2438.689500	1837.459961	210.781342
23209.211223	2438.689500	1836.464844	-59.670208
23209.211223	2438.689500	1835.470703	30.323454
23209.211223	2438.689500	1834.475586	149.002686
23209.211223	2438.689500	1833.480469	17.716669
23209.211223	2438.689500	1832.485352	97.706734
23209.211223	2438.689500	1831.490234	4.671269
23209.211223	2438.689500	1830.495117	199.634872
23209.211223	2438.689500	1829.499023	113.574097
23209.211223	2438.689500	1828.502930	382.588715
23209.211223	2438.689500	1827.506836	147.517868
23209.211223	2438.689500	1826.510742	229.058075
23209.211223	2438.689500	1825.513672	204.900330
23209.211223	2438.689500	1824.517578	163.836258
23209.211223	2438.689500	1823.520508	129.840240
23209.211223	2438.689500	1822.523438	-50.506588
23209.211223	2438.689500	1821.526367	229.224869
23209.211223	2438.689500	1820.529297	55.830933
23209.211223	2438.689500	1819.531250	162.646469
23209.211223	2438.689500	1818.533203	156.694656
23209.211223	2438.689500	1817.535156	224.832428
23209.211223	2438.689500	1816.537109	319.127716
23209.211223	2438.689500	1815.539063	480.257813
23209.211223	2438.689500	1814.540039	224.699600
23209.211223	2438.689500	1813.541992	215.562531
23209.211223	2438.689500	1812.542969	-214.832199
23209.211223	2438.689500	1811.543945	249.412872
23209.211223	2438.689500	1810.543945	117.785828
23209.211223	2438.689500	1809.544922	265.815491
23209.211223	2438.689500	1808.544922	358.618774
23209.211223	2438.689500	1807.544922	200.230652
23209.211223	2438.689500	1806.544922	385.859985
23209.211223	2438.689500	1805.544922	74.246941
23209.211223	2438.689500	1804.544922	37.295765
23209.211223	2438.689500	1803.543945	138.698654
23209.211223	2438.689500	1802.542969	180.173264
23209.211223	2438.689500	1801.541992	97.289932
23209.211223	2438.689500	1800.541016	104.958961
23209.211223	2438.689500	1799.539063	47.981339
23209.211223	2438.689500	1798.538086	165.034653
23209.211223	2438.689500	1797.536133	86.205025
23209.211223	2438.689500	1796.534180	162.250458
23209.211223	2438.689500	1795.532227	183.216187
23209.211223	2438.689500	1794.529297	-106.013565
23209.211223	2438.689500	1793.527344	14.715498
23209.211223	2438.689500	1792.524414	118.499512
23209.211223	2438.689500	1791.521484	150.542938
23209.211223	2438.689500	1790.518555	175.219330
23209.211223	2438.689500	1789.514648	395.001984
23209.211223	2438.689500	1788.511719	114.340340
23209.211223	2438.689500	1787.507813	152.649078
23209.211223	2438.689500	1786.503906	55.024456
23209.211223	2438.689500	1785.500000	166.689880
23209.211223	2438.689500	1784.496094	268.577728
23209.211223	2438.689500	1783.491211	277.394714
23209.211223	2438.689500	1782.486328	74.257660
23209.211223	2438.689500	1781.481445	-71.938049
23209.211223	2438.689500	1780.476563	-163.603577
23209.211223	2438.689500	1779.471680	-143.708649
23209.211223	2438.689500	1778.465820	177.843231
23209.211223	2438.689500	1777.460938	351.703766
23209.211223	2438.689500	1776.455078	368.422211
23209.211223	2438.689500	1775.449219	-114.021507
23209.211223	2438.689500	1774.442383	118.468391
23209.211223	2438.689500	1773.436523	-133.833405
23209.211223	2438.689500	1772.429688	-160.707275
23209.211223	2438.689500	1771.422852	78.091354
23209.211223	2438.689500	1770.416016	311.817780
23209.211223	2438.689500	1769.409180	-145.358627
23209.211223	2438.689500	1768.402344	189.881958
23209.211223	2438.689500	1767.394531	130.954468
23209.211223	2438.689500	1766.386719	252.069626
23209.211223	2438.689500	1765.378906	14.832561
23209.211223	2438.689500	1764.371094	-61.329311
23209.211223	2438.689500	1763.362305	16.361498
23209.211223	2438.689500	1762.354492	67.735741
23209.211223	2438.689500	1761.345703	21.684479
23209.211223	2438.689500	1760.336914	27.533321
23209.211223	2438.689500	1759.328125	111.309525
23209.211223	2438.689500	1758.318359	-63.337265
23209.211223	2438.689500	1757.308594	225.923279
23209.211223	2438.689500	1756.299805	112.414589
23209.211223	2438.689500	1755.290039	-126.750061
23209.211223	2438.689500	1754.279297	-13.489180
23209.211223	2438.689500	1753.269531	118.438622
23209.211223	2438.689500	1752.258789	160.168854
23209.211223	2438.689500	1751.249023	-86.868637
23209.211223	2438.689500	1750.238281	-286.777405
23209.211223	2438.689500	1749.226563	144.354324
23209.211223	2438.689500	1748.215820	0.729353
23209.211223	2438.689500	1747.204102	-32.024658
23209.211223	2438.689500	1746.193359	-124.053551
23209.211223	2438.689500	1745.181641	-76.927742
23209.211223	2438.689500	1744.168945	-124.549667
23209.211223	2438.689500	1743.157227	73.217522
23209.211223	2438.689500	1742.144531	43.999493
23209.211223	2438.689500	1741.132813	-115.249535
23209.211223	2438.689500	1740.120117	3.796494
23209.211223	2438.689500	1739.106445	363.221680
23209.211223	2438.689500	1738.093750	-98.694115
23209.211223	2438.689500	1737.080078	31.352503
23209.211223	2438.689500	1736.067383	17.284906
23209.211223	2438.689500	1735.053711	-4.104038
23209.211223	2438.689500	1734.040039	99.225136
23209.211223	2438.689500	1733.025391	37.277065
23209.211223	2438.689500	1732.011719	-180.378494
23209.211223	2438.689500	1730.997070	25.881819
23209.211223	2438.689500	1729.982422	-213.366364
23209.211223	2438.689500	1728.967773	418.645721
23209.211223	2438.689500	1727.952148	334.347626
23209.211223	2438.689500	1726.937500	125.110214
23209.211223	2438.689500	1725.921875	426.472961
23209.211223	2438.689500	1724.906250	115.635765
23209.211223	2438.689500	1723.890625	117.629280
23209.211223	2438.689500	1722.875000	279.367004
23209.211223	2438.689500	1721.858398	222.068558
23209.211223	2438.689500	1720.841797	61.106689
23209.211223	2438.689500	1719.825195	128.047333
23209.211223	2438.689500	1718.808594	277.019012
23209.211223	2438.689500	1717.791992	190.704910
23209.211223	2438.689500	1716.774414	-109.637039
23209.211223	2438.689500	1715.756836	224.228363
23209.211223	2438.689500	1714.739258	165.505920
23209.211223	2438.689500	1713.721680	0.923930
23209.211223	2438.689500	1712.704102	261.173584
23209.211223	2438.689500	1711.685547	286.347961
23209.211223	2438.689500	1710.667969	168.168457
23209.211223	2438.689500	1709.649414	82.661140
23209.211223	2438.689500	1708.630859	147.138931
23209.211223	2438.689500	1707.611328	112.850586
23209.211223	2438.689500	1706.592773	127.659668
23209.211223	2438.689500	1705.573242	-50.030121
23209.211223	2438.689500	1704.553711	231.645767
23209.211223	2438.689500	1703.534180	-84.664154
23209.211223	2438.689500	1702.513672	-365.914917
23209.211223	2438.689500	1701.494141	118.938545
23209.211223	2438.689500	1700.473633	-150.898834
23209.211223	2438.689500	1699.453125	-118.686508
23209.211223	2438.689500	1698.432617	-194.379333
23209.211223	2438.689500	1697.412109	-427.078613
23209.211223	2438.689500	1696.390625	-86.413956
23209.211223	2438.689500	1695.369141	-85.392159
23209.211223	2438.689500	1694.347656	67.545746
23209.211223	2438.689500	1693.326172	-228.900650
23209.211223	2438.689500	1692.304688	-162.865707
23209.211223	2438.689500	1691.282227	120.426590
23209.211223	2438.689500	1690.260742	-15.025779
23209.211223	2438.689500	1689.238281	-61.786549
23209.211223	2438.689500	1688.214844	-295.689606
23209.211223	2438.689500	1687.192383	-95.001678
23209.211223	2438.689500	1686.168945	65.708862
23209.211223	2438.689500	1685.146484	-325.001892
23209.211223	2438.689500	1684.123047	-148.257462
23209.211223	2438.689500	1683.099609	-83.798935
23209.211223	2438.689500	1682.075195	22.480783
23209.211223	2438.689500	1681.051758	65.595932
23209.211223	2438.689500	1680.027344	264.871277
23209.211223	2438.689500	1679.002930	209.628860
23209.211223	2438.689500	1677.978516	560.156494
23209.211223	2438.689500	1676.953125	266.703461
23209.211223	2438.689500	1675.928711	385.986328
23209.211223	2438.689500	1674.903320	62.123837
23209.211223	2438.689500	1673.877930	269.696472
23209.211223	2438.689500	1672.852539	609.900330
23209.211223	2438.689500	1671.826172	392.970642
23209.211223	2438.689500	1670.800781	320.474731
23209.211223	2438.689500	1669.774414	529.674927
23209.211223	2438.689500	1668.748047	438.300690
23209.211223	2438.689500	1667.721680	460.935089
23209.211223	2438.689500	1666.694336	520.668274
23209.211223	2438.689500	1665.667969	275.445618
23209.211223	2438.689500	1664.640625	967.884094
23209.211223	2438.689500	1663.613281	457.244995
23209.211223	2438.689500	1662.585938	490.970734
23209.211223	2438.689500	1661.557617	819.893494
23209.211223	2438.689500	1660.530273	1004.488586
23209.211223	2438.689500	1659.501953	798.372498
23209.211223	2438.689500	1658.473633	752.621277
23209.211223	2438.689500	1657.444336	720.721313
23209.211223	2438.689500	1656.416016	809.599609
23209.211223	2438.689500	1655.386719	923.889832
23209.211223	2438.689500	1654.358398	803.552429
23209.211223	2438.689500	1653.328125	982.647156
23209.211223	2438.689500	1652.298828	1317.181030
23209.211223	2438.689500	1651.269531	1161.806152
23209.211223	2438.689500	1650.239258	1029.608154
23209.211223	2438.689500	1649.208984	1287.177612
23209.211223	2438.689500	1648.178711	1212.896240
23209.211223	2438.689500	1647.148438	1688.240112
23209.211223	2438.689500	1646.117188	1827.109131
23209.211223	2438.689500	1645.086914	1778.140259
23209.211223	2438.689500	1644.055664	1689.718384
23209.211223	2438.689500	1643.024414	2094.895020
23209.211223	2438.689500	1641.992188	2282.060547
23209.211223	2438.689500	1640.960938	2327.855957
23209.211223	2438.689500	1639.928711	2000.699219
23209.211223	2438.689500	1638.896484	2639.239502
23209.211223	2438.689500	1637.864258	2369.989746
23209.211223	2438.689500	1636.832031	2614.683838
23209.211223	2438.689500	1635.798828	2914.782227
23209.211223	2438.689500	1634.766602	2682.621338
23209.211223	2438.689500	1633.733398	2577.745850
23209.211223	2438.689500	1632.699219	2912.319580
23209.211223	2438.689500	1631.666016	2920.749023
23209.211223	2438.689500	1630.632813	2418.235107
23209.211223	2438.689500	1629.598633	2708.740234
23209.211223	2438.689500	1628.564453	2945.992188
23209.211223	2438.689500	1627.530273	3088.429199
23209.211223	2438.689500	1626.495117	2914.299561
23209.211223	2438.689500	1625.460938	2749.532959
23209.211223	2438.689500	1624.425781	2751.088623
23209.211223	2438.689500	1623.390625	2916.598389
23209.211223	2438.689500	1622.355469	2650.405273
23209.211223	2438.689500	1621.319336	2804.360840
23209.211223	2438.689500	1620.284180	2900.640381
23209.211223	2438.689500	1619.248047	3216.055664
23209.211223	2438.689500	1618.211914	3436.823730
23209.211223	2438.689500	1617.174805	3526.067627
23209.211223	2438.689500	1616.138672	3553.107422
23209.211223	2438.689500	1615.101563	3674.668945
23209.211223	2438.689500	1614.065430	3598.063477
23209.211223	2438.689500	1613.027344	3811.825195
23209.211223	2438.689500	1611.990234	3845.897217
23209.211223	2438.689500	1610.953125	4299.250488
23209.211223	2438.689500	1609.915039	4402.404785
23209.211223	2438.689500	1608.876953	4590.786621
23209.211223	2438.689500	1607.838867	4482.197266
23209.211223	2438.689500	1606.800781	4758.106934
23209.211223	2438.689500	1605.761719	4566.812012
23209.211223	2438.689500	1604.723633	4851.967285
23209.211223	2438.689500	1603.684570	4759.814453
23209.211223	2438.689500	1602.644531	4722.952637
23209.211223	2438.689500	1601.605469	4566.663574
23209.211223	2438.689500	1600.566406	4776.068359
23209.211223	2438.689500	1599.526367	4769.396484
23209.211223	2438.689500	1598.486328	4452.593750
23209.211223	2438.689500	1597.446289	4342.806641
23209.211223	2438.689500	1596.405273	4667.304199
23209.211223	2438.689500	1595.365234	4096.101074
23209.211223	2438.689500	1594.324219	4537.859375
23209.211223	2438.689500	1593.283203	4348.212891
23209.211223	2438.689500	1592.242188	3988.905518
23209.211223	2438.689500	1591.200195	4201.267578
23209.211223	2438.689500	1590.159180	4372.406738
23209.211223	2438.689500	1589.117188	4300.411133
23209.211223	2438.689500	1588.075195	4051.971191
23209.211223	2438.689500	1587.032227	4225.672363
23209.211223	2438.689500	1585.990234	4078.499512
