#X		#Y		#Wave		#Intensity
22964.800000	3073.063833	1999.980469	-53.995583
22964.800000	3073.063833	1999.016602	42.501385
22964.800000	3073.063833	1998.052734	-62.606560
22964.800000	3073.063833	1997.087891	-11.802571
22964.800000	3073.063833	1996.123047	43.691681
22964.800000	3073.063833	1995.158203	141.038956
22964.800000	3073.063833	1994.193359	12.734160
22964.800000	3073.063833	1993.228516	-105.842239
22964.800000	3073.063833	1992.262695	-26.522955
22964.800000	3073.063833	1991.297852	35.225624
22964.800000	3073.063833	1990.332031	86.849930
22964.800000	3073.063833	1989.366211	108.564034
22964.800000	3073.063833	1988.399414	-1.041333
22964.800000	3073.063833	1987.433594	-19.272537
22964.800000	3073.063833	1986.466797	-7.997267
22964.800000	3073.063833	1985.500977	94.585503
22964.800000	3073.063833	1984.534180	26.385674
22964.800000	3073.063833	1983.567383	9.955076
22964.800000	3073.063833	1982.599609	45.271816
22964.800000	3073.063833	1981.632813	-40.644962
22964.800000	3073.063833	1980.665039	26.486393
22964.800000	3073.063833	1979.697266	-10.281875
22964.800000	3073.063833	1978.729492	-27.416214
22964.800000	3073.063833	1977.761719	-49.611958
22964.800000	3073.063833	1976.792969	7.067668
22964.800000	3073.063833	1975.825195	115.434273
22964.800000	3073.063833	1974.856445	117.539886
22964.800000	3073.063833	1973.887695	40.585827
22964.800000	3073.063833	1972.918945	40.020477
22964.800000	3073.063833	1971.949219	-2.572546
22964.800000	3073.063833	1970.980469	-15.658645
22964.800000	3073.063833	1970.010742	30.332872
22964.800000	3073.063833	1969.041016	14.597218
22964.800000	3073.063833	1968.071289	94.891830
22964.800000	3073.063833	1967.101563	29.704037
22964.800000	3073.063833	1966.130859	-20.757471
22964.800000	3073.063833	1965.161133	5.078734
22964.800000	3073.063833	1964.190430	13.595942
22964.800000	3073.063833	1963.219727	86.056915
22964.800000	3073.063833	1962.249023	47.653820
22964.800000	3073.063833	1961.277344	31.353584
22964.800000	3073.063833	1960.306641	-7.143251
22964.800000	3073.063833	1959.334961	82.251801
22964.800000	3073.063833	1958.363281	9.215939
22964.800000	3073.063833	1957.391602	32.072952
22964.800000	3073.063833	1956.419922	72.088203
22964.800000	3073.063833	1955.447266	-23.168428
22964.800000	3073.063833	1954.474609	31.505753
22964.800000	3073.063833	1953.501953	56.632454
22964.800000	3073.063833	1952.529297	37.487938
22964.800000	3073.063833	1951.556641	-20.987055
22964.800000	3073.063833	1950.583984	28.599545
22964.800000	3073.063833	1949.610352	87.961479
22964.800000	3073.063833	1948.636719	19.604422
22964.800000	3073.063833	1947.663086	44.530819
22964.800000	3073.063833	1946.689453	-65.560188
22964.800000	3073.063833	1945.715820	-67.659691
22964.800000	3073.063833	1944.741211	67.612816
22964.800000	3073.063833	1943.767578	21.304419
22964.800000	3073.063833	1942.792969	60.834908
22964.800000	3073.063833	1941.818359	66.011131
22964.800000	3073.063833	1940.842773	-4.824795
22964.800000	3073.063833	1939.868164	-36.423077
22964.800000	3073.063833	1938.892578	42.261719
22964.800000	3073.063833	1937.916992	-65.302887
22964.800000	3073.063833	1936.941406	69.693413
22964.800000	3073.063833	1935.965820	-57.436455
22964.800000	3073.063833	1934.990234	-8.203835
22964.800000	3073.063833	1934.013672	-15.303426
22964.800000	3073.063833	1933.037109	-10.159097
22964.800000	3073.063833	1932.060547	12.118270
22964.800000	3073.063833	1931.083984	-9.654528
22964.800000	3073.063833	1930.107422	-24.074564
22964.800000	3073.063833	1929.129883	-106.975456
22964.800000	3073.063833	1928.153320	-21.087606
22964.800000	3073.063833	1927.175781	-13.471440
22964.800000	3073.063833	1926.198242	74.826942
22964.800000	3073.063833	1925.219727	28.665422
22964.800000	3073.063833	1924.242188	82.729584
22964.800000	3073.063833	1923.263672	-9.818217
22964.800000	3073.063833	1922.285156	-4.603400
22964.800000	3073.063833	1921.306641	-18.917818
22964.800000	3073.063833	1920.328125	47.371929
22964.800000	3073.063833	1919.349609	6.223173
22964.800000	3073.063833	1918.370117	-17.810148
22964.800000	3073.063833	1917.391602	-107.715057
22964.800000	3073.063833	1916.412109	-9.680137
22964.800000	3073.063833	1915.431641	34.658810
22964.800000	3073.063833	1914.452148	103.390961
22964.800000	3073.063833	1913.472656	30.662872
22964.800000	3073.063833	1912.492188	-7.885967
22964.800000	3073.063833	1911.511719	-65.907219
22964.800000	3073.063833	1910.531250	61.355412
22964.800000	3073.063833	1909.550781	-16.118912
22964.800000	3073.063833	1908.569336	-91.111900
22964.800000	3073.063833	1907.588867	14.210976
22964.800000	3073.063833	1906.607422	24.521477
22964.800000	3073.063833	1905.625977	8.058740
22964.800000	3073.063833	1904.644531	25.705332
22964.800000	3073.063833	1903.662109	16.584743
22964.800000	3073.063833	1902.680664	-19.285713
22964.800000	3073.063833	1901.698242	-4.026496
22964.800000	3073.063833	1900.715820	-37.413593
22964.800000	3073.063833	1899.733398	7.066526
22964.800000	3073.063833	1898.750000	-26.277647
22964.800000	3073.063833	1897.767578	76.574066
22964.800000	3073.063833	1896.784180	62.710968
22964.800000	3073.063833	1895.800781	46.438881
22964.800000	3073.063833	1894.817383	13.177706
22964.800000	3073.063833	1893.833984	-17.625834
22964.800000	3073.063833	1892.850586	-145.572388
22964.800000	3073.063833	1891.866211	-64.580582
22964.800000	3073.063833	1890.881836	-29.742954
22964.800000	3073.063833	1889.897461	19.663250
22964.800000	3073.063833	1888.913086	61.782654
22964.800000	3073.063833	1887.927734	11.673676
22964.800000	3073.063833	1886.943359	-74.800583
22964.800000	3073.063833	1885.958008	-69.039978
22964.800000	3073.063833	1884.972656	-63.269352
22964.800000	3073.063833	1883.987305	-25.961845
22964.800000	3073.063833	1883.001953	13.767288
22964.800000	3073.063833	1882.015625	51.067017
22964.800000	3073.063833	1881.029297	-52.217304
22964.800000	3073.063833	1880.042969	-53.672649
22964.800000	3073.063833	1879.056641	-33.312527
22964.800000	3073.063833	1878.070313	-12.951476
22964.800000	3073.063833	1877.083984	24.363522
22964.800000	3073.063833	1876.096680	10.819003
22964.800000	3073.063833	1875.109375	79.602959
22964.800000	3073.063833	1874.122070	-142.107742
22964.800000	3073.063833	1873.134766	81.581276
22964.800000	3073.063833	1872.146484	17.244471
22964.800000	3073.063833	1871.159180	-37.386452
22964.800000	3073.063833	1870.170898	-2.498132
22964.800000	3073.063833	1869.182617	-30.497644
22964.800000	3073.063833	1868.194336	43.067692
22964.800000	3073.063833	1867.205078	-35.693520
22964.800000	3073.063833	1866.216797	-128.925369
22964.800000	3073.063833	1865.227539	104.109787
22964.800000	3073.063833	1864.238281	-39.852589
22964.800000	3073.063833	1863.249023	-7.421376
22964.800000	3073.063833	1862.259766	-8.816784
22964.800000	3073.063833	1861.269531	47.737961
22964.800000	3073.063833	1860.279297	48.739510
22964.800000	3073.063833	1859.290039	66.633995
22964.800000	3073.063833	1858.298828	-48.220234
22964.800000	3073.063833	1857.308594	87.906822
22964.800000	3073.063833	1856.318359	163.664215
22964.800000	3073.063833	1855.327148	46.424606
22964.800000	3073.063833	1854.335938	40.152435
22964.800000	3073.063833	1853.344727	41.106701
22964.800000	3073.063833	1852.353516	58.925556
22964.800000	3073.063833	1851.362305	40.574547
22964.800000	3073.063833	1850.370117	58.364269
22964.800000	3073.063833	1849.377930	97.818748
22964.800000	3073.063833	1848.385742	158.925262
22964.800000	3073.063833	1847.393555	121.251404
22964.800000	3073.063833	1846.401367	35.418961
22964.800000	3073.063833	1845.408203	101.273613
22964.800000	3073.063833	1844.415039	-59.172749
22964.800000	3073.063833	1843.421875	57.180424
22964.800000	3073.063833	1842.428711	57.978855
22964.800000	3073.063833	1841.435547	46.730080
22964.800000	3073.063833	1840.441406	76.354164
22964.800000	3073.063833	1839.448242	38.615135
22964.800000	3073.063833	1838.454102	12.890236
22964.800000	3073.063833	1837.459961	3.980793
22964.800000	3073.063833	1836.464844	59.943275
22964.800000	3073.063833	1835.470703	46.177368
22964.800000	3073.063833	1834.475586	25.184444
22964.800000	3073.063833	1833.480469	13.783249
22964.800000	3073.063833	1832.485352	-67.285011
22964.800000	3073.063833	1831.490234	38.940369
22964.800000	3073.063833	1830.495117	3.458409
22964.800000	3073.063833	1829.499023	-94.444817
22964.800000	3073.063833	1828.502930	95.635025
22964.800000	3073.063833	1827.506836	-23.899700
22964.800000	3073.063833	1826.510742	-45.064831
22964.800000	3073.063833	1825.513672	51.269356
22964.800000	3073.063833	1824.517578	68.404526
22964.800000	3073.063833	1823.520508	-34.376003
22964.800000	3073.063833	1822.523438	47.424107
22964.800000	3073.063833	1821.526367	-60.172626
22964.800000	3073.063833	1820.529297	38.307987
22964.800000	3073.063833	1819.531250	14.533851
22964.800000	3073.063833	1818.533203	-59.567154
22964.800000	3073.063833	1817.535156	-9.145824
22964.800000	3073.063833	1816.537109	41.220058
22964.800000	3073.063833	1815.539063	-13.802173
22964.800000	3073.063833	1814.540039	-16.187084
22964.800000	3073.063833	1813.541992	53.182240
22964.800000	3073.063833	1812.542969	5.249599
22964.800000	3073.063833	1811.543945	86.468559
22964.800000	3073.063833	1810.543945	-21.325743
22964.800000	3073.063833	1809.544922	-43.035110
22964.800000	3073.063833	1808.544922	69.101860
22964.800000	3073.063833	1807.544922	64.030128
22964.800000	3073.063833	1806.544922	51.747929
22964.800000	3073.063833	1805.544922	89.604073
22964.800000	3073.063833	1804.544922	22.288935
22964.800000	3073.063833	1803.543945	33.772438
22964.800000	3073.063833	1802.542969	64.311073
22964.800000	3073.063833	1801.541992	-34.136932
22964.800000	3073.063833	1800.541016	-18.011530
22964.800000	3073.063833	1799.539063	95.912674
22964.800000	3073.063833	1798.538086	-14.556357
22964.800000	3073.063833	1797.536133	30.041903
22964.800000	3073.063833	1796.534180	19.712555
22964.800000	3073.063833	1795.532227	128.582108
22964.800000	3073.063833	1794.529297	13.223173
22964.800000	3073.063833	1793.527344	-2.012304
22964.800000	3073.063833	1792.524414	-5.376864
22964.800000	3073.063833	1791.521484	-65.984505
22964.800000	3073.063833	1790.518555	-0.341485
22964.800000	3073.063833	1789.514648	43.783321
22964.800000	3073.063833	1788.511719	49.734810
22964.800000	3073.063833	1787.507813	105.635750
22964.800000	3073.063833	1786.503906	44.803104
22964.800000	3073.063833	1785.500000	60.112007
22964.800000	3073.063833	1784.496094	8.724484
22964.800000	3073.063833	1783.491211	-11.767492
22964.800000	3073.063833	1782.486328	93.781647
22964.800000	3073.063833	1781.481445	-14.833471
22964.800000	3073.063833	1780.476563	47.761124
22964.800000	3073.063833	1779.471680	-53.780788
22964.800000	3073.063833	1778.465820	-100.667252
22964.800000	3073.063833	1777.460938	2.147102
22964.800000	3073.063833	1776.455078	-25.833406
22964.800000	3073.063833	1775.449219	38.798470
22964.800000	3073.063833	1774.442383	74.841110
22964.800000	3073.063833	1773.436523	-72.053688
22964.800000	3073.063833	1772.429688	-55.113434
22964.800000	3073.063833	1771.422852	-0.251913
22964.800000	3073.063833	1770.416016	56.904964
22964.800000	3073.063833	1769.409180	61.773296
22964.800000	3073.063833	1768.402344	30.991592
22964.800000	3073.063833	1767.394531	45.232460
22964.800000	3073.063833	1766.386719	-11.744228
22964.800000	3073.063833	1765.378906	7.125372
22964.800000	3073.063833	1764.371094	75.718109
22964.800000	3073.063833	1763.362305	-40.672508
22964.800000	3073.063833	1762.354492	103.625435
22964.800000	3073.063833	1761.345703	36.916561
22964.800000	3073.063833	1760.336914	-62.993198
22964.800000	3073.063833	1759.328125	9.986438
22964.800000	3073.063833	1758.318359	-108.948402
22964.800000	3073.063833	1757.308594	-29.007452
22964.800000	3073.063833	1756.299805	-34.373863
22964.800000	3073.063833	1755.290039	-56.370060
22964.800000	3073.063833	1754.279297	-168.344589
22964.800000	3073.063833	1753.269531	24.874075
22964.800000	3073.063833	1752.258789	-49.344406
22964.800000	3073.063833	1751.249023	105.818474
22964.800000	3073.063833	1750.238281	38.587635
22964.800000	3073.063833	1749.226563	51.698570
22964.800000	3073.063833	1748.215820	8.021418
22964.800000	3073.063833	1747.204102	18.650925
22964.800000	3073.063833	1746.193359	-36.935593
22964.800000	3073.063833	1745.181641	63.348351
22964.800000	3073.063833	1744.168945	12.369406
22964.800000	3073.063833	1743.157227	121.932884
22964.800000	3073.063833	1742.144531	42.512196
22964.800000	3073.063833	1741.132813	-60.536819
22964.800000	3073.063833	1740.120117	-29.086664
22964.800000	3073.063833	1739.106445	73.076050
22964.800000	3073.063833	1738.093750	40.673737
22964.800000	3073.063833	1737.080078	36.524521
22964.800000	3073.063833	1736.067383	20.532946
22964.800000	3073.063833	1735.053711	35.135342
22964.800000	3073.063833	1734.040039	-6.902637
22964.800000	3073.063833	1733.025391	28.790310
22964.800000	3073.063833	1732.011719	-53.405708
22964.800000	3073.063833	1730.997070	-6.052299
22964.800000	3073.063833	1729.982422	-1.174576
22964.800000	3073.063833	1728.967773	64.877876
22964.800000	3073.063833	1727.952148	81.393883
22964.800000	3073.063833	1726.937500	29.581015
22964.800000	3073.063833	1725.921875	1.263434
22964.800000	3073.063833	1724.906250	92.919998
22964.800000	3073.063833	1723.890625	-55.506836
22964.800000	3073.063833	1722.875000	-18.090958
22964.800000	3073.063833	1721.858398	160.367340
22964.800000	3073.063833	1720.841797	2.435034
22964.800000	3073.063833	1719.825195	-26.182178
22964.800000	3073.063833	1718.808594	20.377390
22964.800000	3073.063833	1717.791992	-104.697166
22964.800000	3073.063833	1716.774414	-105.248573
22964.800000	3073.063833	1715.756836	6.912026
22964.800000	3073.063833	1714.739258	43.814587
22964.800000	3073.063833	1713.721680	-53.206261
22964.800000	3073.063833	1712.704102	32.896053
22964.800000	3073.063833	1711.685547	20.313023
22964.800000	3073.063833	1710.667969	92.183403
22964.800000	3073.063833	1709.649414	-40.183270
22964.800000	3073.063833	1708.630859	-8.320864
22964.800000	3073.063833	1707.611328	25.817923
22964.800000	3073.063833	1706.592773	38.794117
22964.800000	3073.063833	1705.573242	124.397400
22964.800000	3073.063833	1704.553711	10.651489
22964.800000	3073.063833	1703.534180	18.782698
22964.800000	3073.063833	1702.513672	17.481958
22964.800000	3073.063833	1701.494141	102.832016
22964.800000	3073.063833	1700.473633	42.858727
22964.800000	3073.063833	1699.453125	-96.768433
22964.800000	3073.063833	1698.432617	16.507957
22964.800000	3073.063833	1697.412109	43.071972
22964.800000	3073.063833	1696.390625	-40.440342
22964.800000	3073.063833	1695.369141	-44.395702
22964.800000	3073.063833	1694.347656	-76.471031
22964.800000	3073.063833	1693.326172	45.821777
22964.800000	3073.063833	1692.304688	-68.206642
22964.800000	3073.063833	1691.282227	-46.609356
22964.800000	3073.063833	1690.260742	42.748581
22964.800000	3073.063833	1689.238281	-1.218339
22964.800000	3073.063833	1688.214844	-70.924904
22964.800000	3073.063833	1687.192383	139.764557
22964.800000	3073.063833	1686.168945	20.917923
22964.800000	3073.063833	1685.146484	58.583363
22964.800000	3073.063833	1684.123047	47.146488
22964.800000	3073.063833	1683.099609	61.360245
22964.800000	3073.063833	1682.075195	14.828286
22964.800000	3073.063833	1681.051758	28.969936
22964.800000	3073.063833	1680.027344	96.733551
22964.800000	3073.063833	1679.002930	5.786300
22964.800000	3073.063833	1677.978516	108.448654
22964.800000	3073.063833	1676.953125	-57.171696
22964.800000	3073.063833	1675.928711	85.035820
22964.800000	3073.063833	1674.903320	21.994623
22964.800000	3073.063833	1673.877930	68.495590
22964.800000	3073.063833	1672.852539	-143.725494
22964.800000	3073.063833	1671.826172	-18.062500
22964.800000	3073.063833	1670.800781	168.097122
22964.800000	3073.063833	1669.774414	37.398243
22964.800000	3073.063833	1668.748047	44.108215
22964.800000	3073.063833	1667.721680	104.335159
22964.800000	3073.063833	1666.694336	159.847946
22964.800000	3073.063833	1665.667969	29.142197
22964.800000	3073.063833	1664.640625	40.386753
22964.800000	3073.063833	1663.613281	-50.756618
22964.800000	3073.063833	1662.585938	120.936684
22964.800000	3073.063833	1661.557617	78.590652
22964.800000	3073.063833	1660.530273	103.671623
22964.800000	3073.063833	1659.501953	217.045258
22964.800000	3073.063833	1658.473633	195.555817
22964.800000	3073.063833	1657.444336	246.078461
22964.800000	3073.063833	1656.416016	164.147797
22964.800000	3073.063833	1655.386719	212.295135
22964.800000	3073.063833	1654.358398	200.034119
22964.800000	3073.063833	1653.328125	190.064606
22964.800000	3073.063833	1652.298828	303.125275
22964.800000	3073.063833	1651.269531	376.669128
22964.800000	3073.063833	1650.239258	238.994858
22964.800000	3073.063833	1649.208984	275.363373
22964.800000	3073.063833	1648.178711	416.085541
22964.800000	3073.063833	1647.148438	354.973572
22964.800000	3073.063833	1646.117188	365.744171
22964.800000	3073.063833	1645.086914	348.687988
22964.800000	3073.063833	1644.055664	320.030029
22964.800000	3073.063833	1643.024414	312.229034
22964.800000	3073.063833	1641.992188	385.505005
22964.800000	3073.063833	1640.960938	331.346985
22964.800000	3073.063833	1639.928711	379.098053
22964.800000	3073.063833	1638.896484	350.409363
22964.800000	3073.063833	1637.864258	493.044373
22964.800000	3073.063833	1636.832031	445.815399
22964.800000	3073.063833	1635.798828	477.274963
22964.800000	3073.063833	1634.766602	349.076691
22964.800000	3073.063833	1633.733398	345.835632
22964.800000	3073.063833	1632.699219	423.534943
22964.800000	3073.063833	1631.666016	450.338074
22964.800000	3073.063833	1630.632813	474.817505
22964.800000	3073.063833	1629.598633	499.278778
22964.800000	3073.063833	1628.564453	438.221161
22964.800000	3073.063833	1627.530273	448.818329
22964.800000	3073.063833	1626.495117	526.399658
22964.800000	3073.063833	1625.460938	633.988892
22964.800000	3073.063833	1624.425781	572.954468
22964.800000	3073.063833	1623.390625	715.124878
22964.800000	3073.063833	1622.355469	818.003235
22964.800000	3073.063833	1621.319336	703.893188
22964.800000	3073.063833	1620.284180	839.051208
22964.800000	3073.063833	1619.248047	865.724854
22964.800000	3073.063833	1618.211914	885.477295
22964.800000	3073.063833	1617.174805	979.018372
22964.800000	3073.063833	1616.138672	980.314575
22964.800000	3073.063833	1615.101563	986.222778
22964.800000	3073.063833	1614.065430	909.176636
22964.800000	3073.063833	1613.027344	956.589905
22964.800000	3073.063833	1611.990234	992.486450
22964.800000	3073.063833	1610.953125	1102.093750
22964.800000	3073.063833	1609.915039	981.364746
22964.800000	3073.063833	1608.876953	985.035583
22964.800000	3073.063833	1607.838867	820.667969
22964.800000	3073.063833	1606.800781	909.563477
22964.800000	3073.063833	1605.761719	858.059570
22964.800000	3073.063833	1604.723633	944.648560
22964.800000	3073.063833	1603.684570	893.196167
22964.800000	3073.063833	1602.644531	947.568420
22964.800000	3073.063833	1601.605469	815.697449
22964.800000	3073.063833	1600.566406	727.579468
22964.800000	3073.063833	1599.526367	959.002319
22964.800000	3073.063833	1598.486328	776.707581
22964.800000	3073.063833	1597.446289	884.006958
22964.800000	3073.063833	1596.405273	901.691223
22964.800000	3073.063833	1595.365234	910.215332
22964.800000	3073.063833	1594.324219	944.013062
22964.800000	3073.063833	1593.283203	1005.374207
22964.800000	3073.063833	1592.242188	984.105652
22964.800000	3073.063833	1591.200195	914.672668
22964.800000	3073.063833	1590.159180	1111.462402
22964.800000	3073.063833	1589.117188	1287.551025
22964.800000	3073.063833	1588.075195	1105.803345
22964.800000	3073.063833	1587.032227	1114.479736
22964.800000	3073.063833	1585.990234	1024.607666
22964.800000	3073.063833	1584.947266	976.055664
22964.800000	3073.063833	1583.904297	955.057434
22964.800000	3073.063833	1582.861328	966.180115
22964.800000	3073.063833	1581.818359	1087.296021
22964.800000	3073.063833	1580.775391	954.161621
22964.800000	3073.063833	1579.731445	963.087219
