#X		#Y		#Wave		#Intensity
-28879.670585	18698.098000	2000.043945	0.822991
-28879.670585	18698.098000	1999.080078	-167.785339
-28879.670585	18698.098000	1998.116211	-104.213402
-28879.670585	18698.098000	1997.151367	73.470451
-28879.670585	18698.098000	1996.186523	181.854904
-28879.670585	18698.098000	1995.222656	27.748854
-28879.670585	18698.098000	1994.256836	17.484901
-28879.670585	18698.098000	1993.291992	106.407082
-28879.670585	18698.098000	1992.327148	-32.355122
-28879.670585	18698.098000	1991.361328	74.121330
-28879.670585	18698.098000	1990.395508	-133.639832
-28879.670585	18698.098000	1989.429688	-54.165272
-28879.670585	18698.098000	1988.463867	109.508636
-28879.670585	18698.098000	1987.497070	196.551697
-28879.670585	18698.098000	1986.531250	26.470570
-28879.670585	18698.098000	1985.564453	79.092575
-28879.670585	18698.098000	1984.597656	450.710571
-28879.670585	18698.098000	1983.630859	206.829453
-28879.670585	18698.098000	1982.664063	101.526428
-28879.670585	18698.098000	1981.696289	30.946817
-28879.670585	18698.098000	1980.728516	350.801239
-28879.670585	18698.098000	1979.761719	221.104630
-28879.670585	18698.098000	1978.792969	177.971161
-28879.670585	18698.098000	1977.825195	164.566528
-28879.670585	18698.098000	1976.857422	336.386047
-28879.670585	18698.098000	1975.888672	160.222366
-28879.670585	18698.098000	1974.919922	92.775986
-28879.670585	18698.098000	1973.951172	-11.580510
-28879.670585	18698.098000	1972.982422	-147.892517
-28879.670585	18698.098000	1972.013672	103.111015
-28879.670585	18698.098000	1971.043945	3.949835
-28879.670585	18698.098000	1970.075195	-134.557175
-28879.670585	18698.098000	1969.105469	-162.030182
-28879.670585	18698.098000	1968.135742	61.936218
-28879.670585	18698.098000	1967.165039	-103.426910
-28879.670585	18698.098000	1966.195313	-69.131073
-28879.670585	18698.098000	1965.224609	24.319397
-28879.670585	18698.098000	1964.253906	162.113037
-28879.670585	18698.098000	1963.283203	16.763449
-28879.670585	18698.098000	1962.312500	144.756927
-28879.670585	18698.098000	1961.341797	88.159882
-28879.670585	18698.098000	1960.370117	228.489151
-28879.670585	18698.098000	1959.399414	159.681961
-28879.670585	18698.098000	1958.427734	-29.591234
-28879.670585	18698.098000	1957.455078	123.099510
-28879.670585	18698.098000	1956.483398	152.822174
-28879.670585	18698.098000	1955.511719	47.355522
-28879.670585	18698.098000	1954.539063	30.449249
-28879.670585	18698.098000	1953.566406	82.391365
-28879.670585	18698.098000	1952.593750	176.115768
-28879.670585	18698.098000	1951.621094	33.995838
-28879.670585	18698.098000	1950.647461	105.644760
-28879.670585	18698.098000	1949.674805	169.923248
-28879.670585	18698.098000	1948.701172	-87.432823
-28879.670585	18698.098000	1947.727539	97.188766
-28879.670585	18698.098000	1946.753906	149.229904
-28879.670585	18698.098000	1945.780273	169.370804
-28879.670585	18698.098000	1944.805664	79.119469
-28879.670585	18698.098000	1943.831055	-403.556366
-28879.670585	18698.098000	1942.856445	28.748199
-28879.670585	18698.098000	1941.881836	-2.532640
-28879.670585	18698.098000	1940.907227	-53.400188
-28879.670585	18698.098000	1939.932617	-42.961193
-28879.670585	18698.098000	1938.957031	107.175423
-28879.670585	18698.098000	1937.981445	279.317291
-28879.670585	18698.098000	1937.005859	27.594040
-28879.670585	18698.098000	1936.030273	45.393188
-28879.670585	18698.098000	1935.054688	183.186218
-28879.670585	18698.098000	1934.078125	232.790146
-28879.670585	18698.098000	1933.101563	223.627914
-28879.670585	18698.098000	1932.125000	-54.750797
-28879.670585	18698.098000	1931.148438	41.369747
-28879.670585	18698.098000	1930.171875	12.677957
-28879.670585	18698.098000	1929.194336	-204.352798
-28879.670585	18698.098000	1928.217773	-56.902771
-28879.670585	18698.098000	1927.240234	-88.008537
-28879.670585	18698.098000	1926.262695	88.696350
-28879.670585	18698.098000	1925.284180	69.788841
-28879.670585	18698.098000	1924.306641	-10.215893
-28879.670585	18698.098000	1923.328125	105.274521
-28879.670585	18698.098000	1922.350586	335.531189
-28879.670585	18698.098000	1921.372070	-18.056662
-28879.670585	18698.098000	1920.392578	295.150757
-28879.670585	18698.098000	1919.414063	-50.993317
-28879.670585	18698.098000	1918.434570	81.439423
-28879.670585	18698.098000	1917.456055	138.149948
-28879.670585	18698.098000	1916.476563	-193.163910
-28879.670585	18698.098000	1915.497070	48.970081
-28879.670585	18698.098000	1914.516602	156.843796
-28879.670585	18698.098000	1913.537109	120.767723
-28879.670585	18698.098000	1912.556641	-39.667717
-28879.670585	18698.098000	1911.576172	107.121101
-28879.670585	18698.098000	1910.595703	195.338608
-28879.670585	18698.098000	1909.615234	293.251709
-28879.670585	18698.098000	1908.633789	54.867138
-28879.670585	18698.098000	1907.653320	16.312113
-28879.670585	18698.098000	1906.671875	75.178864
-28879.670585	18698.098000	1905.690430	26.855919
-28879.670585	18698.098000	1904.708984	34.528244
-28879.670585	18698.098000	1903.727539	151.718719
-28879.670585	18698.098000	1902.745117	83.875458
-28879.670585	18698.098000	1901.762695	62.267967
-28879.670585	18698.098000	1900.780273	-175.883560
-28879.670585	18698.098000	1899.797852	-134.237839
-28879.670585	18698.098000	1898.815430	45.993710
-28879.670585	18698.098000	1897.832031	-104.555313
-28879.670585	18698.098000	1896.849609	236.004639
-28879.670585	18698.098000	1895.866211	-179.513824
-28879.670585	18698.098000	1894.882813	107.418831
-28879.670585	18698.098000	1893.898438	139.098282
-28879.670585	18698.098000	1892.915039	5.545166
-28879.670585	18698.098000	1891.930664	95.470390
-28879.670585	18698.098000	1890.947266	343.175995
-28879.670585	18698.098000	1889.962891	-127.902634
-28879.670585	18698.098000	1888.977539	-154.605759
-28879.670585	18698.098000	1887.993164	100.204781
-28879.670585	18698.098000	1887.007813	114.661530
-28879.670585	18698.098000	1886.023438	-60.151886
-28879.670585	18698.098000	1885.038086	65.850121
-28879.670585	18698.098000	1884.051758	51.114403
-28879.670585	18698.098000	1883.066406	87.271660
-28879.670585	18698.098000	1882.081055	353.691650
-28879.670585	18698.098000	1881.094727	-17.484455
-28879.670585	18698.098000	1880.108398	-247.998062
-28879.670585	18698.098000	1879.122070	37.625195
-28879.670585	18698.098000	1878.135742	332.797150
-28879.670585	18698.098000	1877.148438	51.389355
-28879.670585	18698.098000	1876.162109	-48.328358
-28879.670585	18698.098000	1875.174805	23.856062
-28879.670585	18698.098000	1874.187500	69.353821
-28879.670585	18698.098000	1873.199219	-182.883575
-28879.670585	18698.098000	1872.211914	17.431620
-28879.670585	18698.098000	1871.223633	43.450653
-28879.670585	18698.098000	1870.236328	-53.935078
-28879.670585	18698.098000	1869.248047	131.630661
-28879.670585	18698.098000	1868.258789	232.467896
-28879.670585	18698.098000	1867.270508	229.278809
-28879.670585	18698.098000	1866.282227	158.380066
-28879.670585	18698.098000	1865.292969	19.808903
-28879.670585	18698.098000	1864.303711	-123.577728
-28879.670585	18698.098000	1863.314453	163.042297
-28879.670585	18698.098000	1862.324219	-69.750870
-28879.670585	18698.098000	1861.334961	-102.067139
-28879.670585	18698.098000	1860.344727	196.353500
-28879.670585	18698.098000	1859.354492	159.100586
-28879.670585	18698.098000	1858.364258	158.025620
-28879.670585	18698.098000	1857.374023	255.845276
-28879.670585	18698.098000	1856.383789	271.569244
-28879.670585	18698.098000	1855.392578	142.527512
-28879.670585	18698.098000	1854.401367	20.731676
-28879.670585	18698.098000	1853.410156	270.261780
-28879.670585	18698.098000	1852.418945	160.469299
-28879.670585	18698.098000	1851.426758	255.549332
-28879.670585	18698.098000	1850.435547	377.064697
-28879.670585	18698.098000	1849.443359	317.800079
-28879.670585	18698.098000	1848.451172	287.425568
-28879.670585	18698.098000	1847.458984	30.636427
-28879.670585	18698.098000	1846.466797	212.153381
-28879.670585	18698.098000	1845.473633	287.636139
-28879.670585	18698.098000	1844.480469	259.549896
-28879.670585	18698.098000	1843.487305	496.162231
-28879.670585	18698.098000	1842.494141	58.928219
-28879.670585	18698.098000	1841.500977	25.978722
-28879.670585	18698.098000	1840.506836	149.342468
-28879.670585	18698.098000	1839.513672	92.266724
-28879.670585	18698.098000	1838.519531	326.097961
-28879.670585	18698.098000	1837.525391	420.379761
-28879.670585	18698.098000	1836.530273	271.839935
-28879.670585	18698.098000	1835.536133	197.813934
-28879.670585	18698.098000	1834.541016	361.626526
-28879.670585	18698.098000	1833.545898	16.100697
-28879.670585	18698.098000	1832.550781	134.181854
-28879.670585	18698.098000	1831.555664	168.141525
-28879.670585	18698.098000	1830.560547	197.247360
-28879.670585	18698.098000	1829.564453	245.508240
-28879.670585	18698.098000	1828.568359	27.335260
-28879.670585	18698.098000	1827.572266	214.699234
-28879.670585	18698.098000	1826.576172	207.643204
-28879.670585	18698.098000	1825.580078	318.077393
-28879.670585	18698.098000	1824.583008	25.569164
-28879.670585	18698.098000	1823.585938	-197.337387
-28879.670585	18698.098000	1822.588867	80.797295
-28879.670585	18698.098000	1821.591797	231.770203
-28879.670585	18698.098000	1820.594727	363.477936
-28879.670585	18698.098000	1819.596680	32.722015
-28879.670585	18698.098000	1818.599609	-10.510470
-28879.670585	18698.098000	1817.601563	245.590439
-28879.670585	18698.098000	1816.603516	221.416809
-28879.670585	18698.098000	1815.604492	139.758347
-28879.670585	18698.098000	1814.606445	113.149277
-28879.670585	18698.098000	1813.607422	86.512604
-28879.670585	18698.098000	1812.608398	325.424133
-28879.670585	18698.098000	1811.609375	28.376186
-28879.670585	18698.098000	1810.610352	59.064236
-28879.670585	18698.098000	1809.610352	228.394989
-28879.670585	18698.098000	1808.611328	-90.091042
-28879.670585	18698.098000	1807.611328	169.966278
-28879.670585	18698.098000	1806.611328	95.308968
-28879.670585	18698.098000	1805.610352	264.363190
-28879.670585	18698.098000	1804.610352	98.864998
-28879.670585	18698.098000	1803.609375	382.434082
-28879.670585	18698.098000	1802.608398	164.369232
-28879.670585	18698.098000	1801.607422	137.362061
-28879.670585	18698.098000	1800.606445	-56.770859
-28879.670585	18698.098000	1799.605469	6.902305
-28879.670585	18698.098000	1798.603516	65.741074
-28879.670585	18698.098000	1797.601563	95.896011
-28879.670585	18698.098000	1796.599609	68.755989
-28879.670585	18698.098000	1795.597656	261.004791
-28879.670585	18698.098000	1794.595703	47.793007
-28879.670585	18698.098000	1793.592773	225.601135
-28879.670585	18698.098000	1792.589844	431.911926
-28879.670585	18698.098000	1791.587891	168.645752
-28879.670585	18698.098000	1790.583984	26.956396
-28879.670585	18698.098000	1789.581055	180.684662
-28879.670585	18698.098000	1788.577148	196.177826
-28879.670585	18698.098000	1787.574219	68.759033
-28879.670585	18698.098000	1786.570313	103.252029
-28879.670585	18698.098000	1785.566406	232.917145
-28879.670585	18698.098000	1784.561523	188.763916
-28879.670585	18698.098000	1783.557617	296.885254
-28879.670585	18698.098000	1782.552734	283.602722
-28879.670585	18698.098000	1781.547852	94.280312
-28879.670585	18698.098000	1780.542969	168.970993
-28879.670585	18698.098000	1779.538086	250.735550
-28879.670585	18698.098000	1778.532227	151.768936
-28879.670585	18698.098000	1777.527344	280.984711
-28879.670585	18698.098000	1776.521484	227.141647
-28879.670585	18698.098000	1775.515625	-111.816032
-28879.670585	18698.098000	1774.508789	240.574097
-28879.670585	18698.098000	1773.502930	-17.565182
-28879.670585	18698.098000	1772.496094	213.514923
-28879.670585	18698.098000	1771.489258	256.928680
-28879.670585	18698.098000	1770.482422	274.186096
-28879.670585	18698.098000	1769.475586	58.840237
-28879.670585	18698.098000	1768.467773	220.808441
-28879.670585	18698.098000	1767.460938	-245.960052
-28879.670585	18698.098000	1766.453125	257.492310
-28879.670585	18698.098000	1765.445313	177.369736
-28879.670585	18698.098000	1764.437500	16.643270
-28879.670585	18698.098000	1763.428711	10.027038
-28879.670585	18698.098000	1762.420898	204.841629
-28879.670585	18698.098000	1761.412109	480.118561
-28879.670585	18698.098000	1760.403320	260.122742
-28879.670585	18698.098000	1759.393555	253.361282
-28879.670585	18698.098000	1758.384766	5.024034
-28879.670585	18698.098000	1757.375000	206.628693
-28879.670585	18698.098000	1756.366211	273.197296
-28879.670585	18698.098000	1755.356445	86.462296
-28879.670585	18698.098000	1754.345703	98.548904
-28879.670585	18698.098000	1753.335938	51.461735
-28879.670585	18698.098000	1752.325195	139.200684
-28879.670585	18698.098000	1751.315430	-146.792099
-28879.670585	18698.098000	1750.304688	-61.458160
-28879.670585	18698.098000	1749.292969	309.880463
-28879.670585	18698.098000	1748.282227	135.045013
-28879.670585	18698.098000	1747.270508	-49.203110
-28879.670585	18698.098000	1746.259766	-75.089493
-28879.670585	18698.098000	1745.248047	206.114044
-28879.670585	18698.098000	1744.235352	232.103073
-28879.670585	18698.098000	1743.223633	151.798599
-28879.670585	18698.098000	1742.211914	3.037498
-28879.670585	18698.098000	1741.199219	-86.677383
-28879.670585	18698.098000	1740.186523	-86.691994
-28879.670585	18698.098000	1739.173828	-48.970833
-28879.670585	18698.098000	1738.160156	-49.034554
-28879.670585	18698.098000	1737.147461	-27.881872
-28879.670585	18698.098000	1736.133789	-204.857162
-28879.670585	18698.098000	1735.120117	118.080452
-28879.670585	18698.098000	1734.106445	-124.896820
-28879.670585	18698.098000	1733.091797	68.235245
-28879.670585	18698.098000	1732.078125	-122.830513
-28879.670585	18698.098000	1731.063477	371.768433
-28879.670585	18698.098000	1730.048828	171.260544
-28879.670585	18698.098000	1729.034180	142.739899
-28879.670585	18698.098000	1728.019531	-52.968918
-28879.670585	18698.098000	1727.003906	-10.841732
-28879.670585	18698.098000	1725.988281	179.545258
-28879.670585	18698.098000	1724.972656	99.208046
-28879.670585	18698.098000	1723.957031	-82.284645
-28879.670585	18698.098000	1722.941406	178.538254
-28879.670585	18698.098000	1721.924805	-9.986627
-28879.670585	18698.098000	1720.909180	-106.738457
-28879.670585	18698.098000	1719.892578	-71.806099
-28879.670585	18698.098000	1718.875977	-69.808632
-28879.670585	18698.098000	1717.858398	-18.473907
-28879.670585	18698.098000	1716.841797	-96.401718
-28879.670585	18698.098000	1715.824219	62.965504
-28879.670585	18698.098000	1714.806641	-66.647537
-28879.670585	18698.098000	1713.789063	336.865021
-28879.670585	18698.098000	1712.770508	-67.482521
-28879.670585	18698.098000	1711.752930	-60.869949
-28879.670585	18698.098000	1710.734375	77.162575
-28879.670585	18698.098000	1709.715820	142.388641
-28879.670585	18698.098000	1708.697266	404.660217
-28879.670585	18698.098000	1707.678711	-4.047726
-28879.670585	18698.098000	1706.659180	79.892395
-28879.670585	18698.098000	1705.640625	112.211021
-28879.670585	18698.098000	1704.621094	99.965591
-28879.670585	18698.098000	1703.600586	-90.423576
-28879.670585	18698.098000	1702.581055	-189.345154
-28879.670585	18698.098000	1701.561523	222.539352
-28879.670585	18698.098000	1700.541016	275.847717
-28879.670585	18698.098000	1699.520508	212.025482
-28879.670585	18698.098000	1698.500000	84.998817
-28879.670585	18698.098000	1697.478516	-18.573490
-28879.670585	18698.098000	1696.458008	388.177734
-28879.670585	18698.098000	1695.436523	413.296295
-28879.670585	18698.098000	1694.415039	71.045998
-28879.670585	18698.098000	1693.393555	-65.205490
-28879.670585	18698.098000	1692.372070	102.655495
-28879.670585	18698.098000	1691.349609	15.551443
-28879.670585	18698.098000	1690.327148	99.156403
-28879.670585	18698.098000	1689.304688	93.900482
-28879.670585	18698.098000	1688.282227	268.608307
-28879.670585	18698.098000	1687.259766	64.702202
-28879.670585	18698.098000	1686.236328	145.895630
-28879.670585	18698.098000	1685.213867	185.016769
-28879.670585	18698.098000	1684.190430	112.025429
-28879.670585	18698.098000	1683.166016	39.060703
-28879.670585	18698.098000	1682.142578	192.571808
-28879.670585	18698.098000	1681.119141	252.666809
-28879.670585	18698.098000	1680.094727	228.729172
-28879.670585	18698.098000	1679.070313	169.809875
-28879.670585	18698.098000	1678.045898	227.548019
-28879.670585	18698.098000	1677.020508	289.930634
-28879.670585	18698.098000	1675.996094	44.506424
-28879.670585	18698.098000	1674.970703	288.752930
-28879.670585	18698.098000	1673.945313	297.494537
-28879.670585	18698.098000	1672.919922	119.805923
-28879.670585	18698.098000	1671.893555	44.709255
-28879.670585	18698.098000	1670.868164	93.114555
-28879.670585	18698.098000	1669.841797	434.968170
-28879.670585	18698.098000	1668.815430	-45.304001
-28879.670585	18698.098000	1667.789063	-3.871426
-28879.670585	18698.098000	1666.761719	309.891663
-28879.670585	18698.098000	1665.735352	230.238937
-28879.670585	18698.098000	1664.708008	204.140274
-28879.670585	18698.098000	1663.680664	580.525452
-28879.670585	18698.098000	1662.653320	331.101898
-28879.670585	18698.098000	1661.625000	393.395935
-28879.670585	18698.098000	1660.597656	246.428589
-28879.670585	18698.098000	1659.569336	343.607422
-28879.670585	18698.098000	1658.541016	364.065247
-28879.670585	18698.098000	1657.512695	142.865036
-28879.670585	18698.098000	1656.483398	247.011597
-28879.670585	18698.098000	1655.455078	174.605957
-28879.670585	18698.098000	1654.425781	185.842911
-28879.670585	18698.098000	1653.396484	315.505615
-28879.670585	18698.098000	1652.366211	291.915375
-28879.670585	18698.098000	1651.336914	361.192627
-28879.670585	18698.098000	1650.306641	312.108459
-28879.670585	18698.098000	1649.276367	360.504547
-28879.670585	18698.098000	1648.246094	355.545410
-28879.670585	18698.098000	1647.215820	292.627960
-28879.670585	18698.098000	1646.185547	348.006531
-28879.670585	18698.098000	1645.154297	714.029907
-28879.670585	18698.098000	1644.123047	706.758423
-28879.670585	18698.098000	1643.091797	407.518646
-28879.670585	18698.098000	1642.060547	601.922424
-28879.670585	18698.098000	1641.028320	247.259964
-28879.670585	18698.098000	1639.997070	191.528229
-28879.670585	18698.098000	1638.964844	290.981201
-28879.670585	18698.098000	1637.931641	355.685760
-28879.670585	18698.098000	1636.899414	420.390717
-28879.670585	18698.098000	1635.867188	415.665619
-28879.670585	18698.098000	1634.833984	348.488434
-28879.670585	18698.098000	1633.800781	156.442703
-28879.670585	18698.098000	1632.767578	415.507355
-28879.670585	18698.098000	1631.734375	461.751190
-28879.670585	18698.098000	1630.700195	489.503754
-28879.670585	18698.098000	1629.666016	339.282135
-28879.670585	18698.098000	1628.631836	404.075012
-28879.670585	18698.098000	1627.597656	545.121094
-28879.670585	18698.098000	1626.563477	311.885681
-28879.670585	18698.098000	1625.528320	579.981628
-28879.670585	18698.098000	1624.493164	554.718872
-28879.670585	18698.098000	1623.458008	621.849731
-28879.670585	18698.098000	1622.422852	492.765350
-28879.670585	18698.098000	1621.387695	696.108643
-28879.670585	18698.098000	1620.351563	546.348083
-28879.670585	18698.098000	1619.315430	509.723206
-28879.670585	18698.098000	1618.279297	551.566406
-28879.670585	18698.098000	1617.243164	641.852722
-28879.670585	18698.098000	1616.207031	600.709534
-28879.670585	18698.098000	1615.169922	432.822266
-28879.670585	18698.098000	1614.132813	705.250488
-28879.670585	18698.098000	1613.095703	535.168518
-28879.670585	18698.098000	1612.058594	768.369690
-28879.670585	18698.098000	1611.020508	480.926300
-28879.670585	18698.098000	1609.983398	575.933289
-28879.670585	18698.098000	1608.945313	530.478271
-28879.670585	18698.098000	1607.907227	600.181152
-28879.670585	18698.098000	1606.868164	419.006927
-28879.670585	18698.098000	1605.830078	578.522949
-28879.670585	18698.098000	1604.791016	627.570923
-28879.670585	18698.098000	1603.751953	483.409393
-28879.670585	18698.098000	1602.712891	665.925415
-28879.670585	18698.098000	1601.673828	482.795135
-28879.670585	18698.098000	1600.633789	626.228027
-28879.670585	18698.098000	1599.594727	771.945129
