#X		#Y		#Wave		#Intensity
-28870.512181	18717.195000	2000.043945	-85.218872
-28870.512181	18717.195000	1999.080078	-14.399582
-28870.512181	18717.195000	1998.116211	-35.629360
-28870.512181	18717.195000	1997.151367	181.043091
-28870.512181	18717.195000	1996.186523	95.342499
-28870.512181	18717.195000	1995.222656	165.720291
-28870.512181	18717.195000	1994.256836	20.584757
-28870.512181	18717.195000	1993.291992	-45.273670
-28870.512181	18717.195000	1992.327148	86.943115
-28870.512181	18717.195000	1991.361328	-233.900406
-28870.512181	18717.195000	1990.395508	118.539948
-28870.512181	18717.195000	1989.429688	97.184471
-28870.512181	18717.195000	1988.463867	80.766029
-28870.512181	18717.195000	1987.497070	-54.393841
-28870.512181	18717.195000	1986.531250	-169.742538
-28870.512181	18717.195000	1985.564453	298.478821
-28870.512181	18717.195000	1984.597656	131.152802
-28870.512181	18717.195000	1983.630859	258.002625
-28870.512181	18717.195000	1982.664063	283.461517
-28870.512181	18717.195000	1981.696289	-12.313055
-28870.512181	18717.195000	1980.728516	35.377125
-28870.512181	18717.195000	1979.761719	-5.892695
-28870.512181	18717.195000	1978.792969	-17.530174
-28870.512181	18717.195000	1977.825195	151.044632
-28870.512181	18717.195000	1976.857422	52.931713
-28870.512181	18717.195000	1975.888672	16.536606
-28870.512181	18717.195000	1974.919922	56.626144
-28870.512181	18717.195000	1973.951172	-11.877982
-28870.512181	18717.195000	1972.982422	8.418602
-28870.512181	18717.195000	1972.013672	13.885875
-28870.512181	18717.195000	1971.043945	6.999680
-28870.512181	18717.195000	1970.075195	184.985703
-28870.512181	18717.195000	1969.105469	67.101410
-28870.512181	18717.195000	1968.135742	60.133484
-28870.512181	18717.195000	1967.165039	21.114374
-28870.512181	18717.195000	1966.195313	233.354996
-28870.512181	18717.195000	1965.224609	157.321686
-28870.512181	18717.195000	1964.253906	-19.674320
-28870.512181	18717.195000	1963.283203	-41.517757
-28870.512181	18717.195000	1962.312500	-134.767197
-28870.512181	18717.195000	1961.341797	254.386978
-28870.512181	18717.195000	1960.370117	225.048447
-28870.512181	18717.195000	1959.399414	-45.414776
-28870.512181	18717.195000	1958.427734	-10.782719
-28870.512181	18717.195000	1957.455078	159.079407
-28870.512181	18717.195000	1956.483398	255.082794
-28870.512181	18717.195000	1955.511719	48.636791
-28870.512181	18717.195000	1954.539063	33.968021
-28870.512181	18717.195000	1953.566406	-2.838392
-28870.512181	18717.195000	1952.593750	213.422791
-28870.512181	18717.195000	1951.621094	196.200943
-28870.512181	18717.195000	1950.647461	112.646469
-28870.512181	18717.195000	1949.674805	-27.384661
-28870.512181	18717.195000	1948.701172	119.877892
-28870.512181	18717.195000	1947.727539	60.860283
-28870.512181	18717.195000	1946.753906	119.647682
-28870.512181	18717.195000	1945.780273	156.305740
-28870.512181	18717.195000	1944.805664	75.164452
-28870.512181	18717.195000	1943.831055	-10.875298
-28870.512181	18717.195000	1942.856445	-136.146271
-28870.512181	18717.195000	1941.881836	-35.804462
-28870.512181	18717.195000	1940.907227	-36.038105
-28870.512181	18717.195000	1939.932617	233.331787
-28870.512181	18717.195000	1938.957031	36.951492
-28870.512181	18717.195000	1937.981445	-56.467354
-28870.512181	18717.195000	1937.005859	26.510088
-28870.512181	18717.195000	1936.030273	67.797188
-28870.512181	18717.195000	1935.054688	94.354195
-28870.512181	18717.195000	1934.078125	196.784363
-28870.512181	18717.195000	1933.101563	-109.651749
-28870.512181	18717.195000	1932.125000	-17.052464
-28870.512181	18717.195000	1931.148438	77.938972
-28870.512181	18717.195000	1930.171875	177.769135
-28870.512181	18717.195000	1929.194336	116.100784
-28870.512181	18717.195000	1928.217773	132.696259
-28870.512181	18717.195000	1927.240234	93.028152
-28870.512181	18717.195000	1926.262695	-46.878117
-28870.512181	18717.195000	1925.284180	135.899872
-28870.512181	18717.195000	1924.306641	-6.441782
-28870.512181	18717.195000	1923.328125	-73.000916
-28870.512181	18717.195000	1922.350586	-22.293266
-28870.512181	18717.195000	1921.372070	174.928955
-28870.512181	18717.195000	1920.392578	-94.362282
-28870.512181	18717.195000	1919.414063	-180.454117
-28870.512181	18717.195000	1918.434570	9.317176
-28870.512181	18717.195000	1917.456055	25.713360
-28870.512181	18717.195000	1916.476563	212.904938
-28870.512181	18717.195000	1915.497070	243.867676
-28870.512181	18717.195000	1914.516602	316.273865
-28870.512181	18717.195000	1913.537109	-45.474991
-28870.512181	18717.195000	1912.556641	-138.879395
-28870.512181	18717.195000	1911.576172	-151.811157
-28870.512181	18717.195000	1910.595703	-91.627380
-28870.512181	18717.195000	1909.615234	29.445677
-28870.512181	18717.195000	1908.633789	-44.461777
-28870.512181	18717.195000	1907.653320	39.990417
-28870.512181	18717.195000	1906.671875	87.866035
-28870.512181	18717.195000	1905.690430	-178.427383
-28870.512181	18717.195000	1904.708984	73.965942
-28870.512181	18717.195000	1903.727539	102.299263
-28870.512181	18717.195000	1902.745117	245.003464
-28870.512181	18717.195000	1901.762695	5.604311
-28870.512181	18717.195000	1900.780273	-138.832474
-28870.512181	18717.195000	1899.797852	98.671936
-28870.512181	18717.195000	1898.815430	-65.204430
-28870.512181	18717.195000	1897.832031	4.402860
-28870.512181	18717.195000	1896.849609	-28.133593
-28870.512181	18717.195000	1895.866211	-82.541290
-28870.512181	18717.195000	1894.882813	57.479000
-28870.512181	18717.195000	1893.898438	32.217453
-28870.512181	18717.195000	1892.915039	264.459808
-28870.512181	18717.195000	1891.930664	-40.161160
-28870.512181	18717.195000	1890.947266	41.432304
-28870.512181	18717.195000	1889.962891	93.856331
-28870.512181	18717.195000	1888.977539	-125.621254
-28870.512181	18717.195000	1887.993164	-102.324028
-28870.512181	18717.195000	1887.007813	-149.411301
-28870.512181	18717.195000	1886.023438	177.131271
-28870.512181	18717.195000	1885.038086	120.295692
-28870.512181	18717.195000	1884.051758	14.972824
-28870.512181	18717.195000	1883.066406	113.360626
-28870.512181	18717.195000	1882.081055	92.915169
-28870.512181	18717.195000	1881.094727	208.209702
-28870.512181	18717.195000	1880.108398	-78.824669
-28870.512181	18717.195000	1879.122070	160.018356
-28870.512181	18717.195000	1878.135742	86.268288
-28870.512181	18717.195000	1877.148438	56.140915
-28870.512181	18717.195000	1876.162109	42.968990
-28870.512181	18717.195000	1875.174805	223.488541
-28870.512181	18717.195000	1874.187500	-164.916183
-28870.512181	18717.195000	1873.199219	-23.153467
-28870.512181	18717.195000	1872.211914	67.736427
-28870.512181	18717.195000	1871.223633	73.916222
-28870.512181	18717.195000	1870.236328	-4.570371
-28870.512181	18717.195000	1869.248047	-66.099701
-28870.512181	18717.195000	1868.258789	-132.443085
-28870.512181	18717.195000	1867.270508	-2.949383
-28870.512181	18717.195000	1866.282227	-49.949772
-28870.512181	18717.195000	1865.292969	-135.596725
-28870.512181	18717.195000	1864.303711	56.638542
-28870.512181	18717.195000	1863.314453	120.770821
-28870.512181	18717.195000	1862.324219	39.966957
-28870.512181	18717.195000	1861.334961	-19.077002
-28870.512181	18717.195000	1860.344727	201.960770
-28870.512181	18717.195000	1859.354492	12.559199
-28870.512181	18717.195000	1858.364258	69.395195
-28870.512181	18717.195000	1857.374023	-1.676640
-28870.512181	18717.195000	1856.383789	-183.698166
-28870.512181	18717.195000	1855.392578	-1.431285
-28870.512181	18717.195000	1854.401367	86.713280
-28870.512181	18717.195000	1853.410156	-68.698936
-28870.512181	18717.195000	1852.418945	101.388802
-28870.512181	18717.195000	1851.426758	90.647209
-28870.512181	18717.195000	1850.435547	-23.713072
-28870.512181	18717.195000	1849.443359	16.168777
-28870.512181	18717.195000	1848.451172	17.493336
-28870.512181	18717.195000	1847.458984	-7.674866
-28870.512181	18717.195000	1846.466797	29.773623
-28870.512181	18717.195000	1845.473633	98.506546
-28870.512181	18717.195000	1844.480469	-42.198391
-28870.512181	18717.195000	1843.487305	303.282898
-28870.512181	18717.195000	1842.494141	133.719986
-28870.512181	18717.195000	1841.500977	110.967438
-28870.512181	18717.195000	1840.506836	112.278900
-28870.512181	18717.195000	1839.513672	-102.842072
-28870.512181	18717.195000	1838.519531	-67.828621
-28870.512181	18717.195000	1837.525391	-1.577906
-28870.512181	18717.195000	1836.530273	26.195961
-28870.512181	18717.195000	1835.536133	169.301193
-28870.512181	18717.195000	1834.541016	163.398376
-28870.512181	18717.195000	1833.545898	234.364746
-28870.512181	18717.195000	1832.550781	127.586090
-28870.512181	18717.195000	1831.555664	54.463753
-28870.512181	18717.195000	1830.560547	0.576858
-28870.512181	18717.195000	1829.564453	93.127266
-28870.512181	18717.195000	1828.568359	-11.139627
-28870.512181	18717.195000	1827.572266	78.981247
-28870.512181	18717.195000	1826.576172	149.877579
-28870.512181	18717.195000	1825.580078	50.457539
-28870.512181	18717.195000	1824.583008	27.813616
-28870.512181	18717.195000	1823.585938	86.696060
-28870.512181	18717.195000	1822.588867	-46.211559
-28870.512181	18717.195000	1821.591797	218.776276
-28870.512181	18717.195000	1820.594727	81.102867
-28870.512181	18717.195000	1819.596680	-173.906876
-28870.512181	18717.195000	1818.599609	136.466293
-28870.512181	18717.195000	1817.601563	-125.641510
-28870.512181	18717.195000	1816.603516	21.789482
-28870.512181	18717.195000	1815.604492	42.289215
-28870.512181	18717.195000	1814.606445	57.992935
-28870.512181	18717.195000	1813.607422	114.373680
-28870.512181	18717.195000	1812.608398	-80.486313
-28870.512181	18717.195000	1811.609375	6.996870
-28870.512181	18717.195000	1810.610352	-70.577232
-28870.512181	18717.195000	1809.610352	-128.991180
-28870.512181	18717.195000	1808.611328	147.323837
-28870.512181	18717.195000	1807.611328	122.355507
-28870.512181	18717.195000	1806.611328	300.534637
-28870.512181	18717.195000	1805.610352	38.995697
-28870.512181	18717.195000	1804.610352	78.563301
-28870.512181	18717.195000	1803.609375	15.410686
-28870.512181	18717.195000	1802.608398	-66.823318
-28870.512181	18717.195000	1801.607422	194.788925
-28870.512181	18717.195000	1800.606445	100.615494
-28870.512181	18717.195000	1799.605469	163.999054
-28870.512181	18717.195000	1798.603516	244.062271
-28870.512181	18717.195000	1797.601563	-12.303076
-28870.512181	18717.195000	1796.599609	320.608948
-28870.512181	18717.195000	1795.597656	28.550201
-28870.512181	18717.195000	1794.595703	239.718796
-28870.512181	18717.195000	1793.592773	145.656357
-28870.512181	18717.195000	1792.589844	-55.632111
-28870.512181	18717.195000	1791.587891	-116.245056
-28870.512181	18717.195000	1790.583984	51.900555
-28870.512181	18717.195000	1789.581055	193.774170
-28870.512181	18717.195000	1788.577148	311.775513
-28870.512181	18717.195000	1787.574219	-13.190722
-28870.512181	18717.195000	1786.570313	97.658989
-28870.512181	18717.195000	1785.566406	60.879482
-28870.512181	18717.195000	1784.561523	107.410759
-28870.512181	18717.195000	1783.557617	42.084312
-28870.512181	18717.195000	1782.552734	188.515656
-28870.512181	18717.195000	1781.547852	-62.335114
-28870.512181	18717.195000	1780.542969	105.457657
-28870.512181	18717.195000	1779.538086	242.272736
-28870.512181	18717.195000	1778.532227	205.496414
-28870.512181	18717.195000	1777.527344	14.238505
-28870.512181	18717.195000	1776.521484	-127.045670
-28870.512181	18717.195000	1775.515625	9.696775
-28870.512181	18717.195000	1774.508789	110.753471
-28870.512181	18717.195000	1773.502930	12.268467
-28870.512181	18717.195000	1772.496094	-55.313717
-28870.512181	18717.195000	1771.489258	171.510025
-28870.512181	18717.195000	1770.482422	-147.689163
-28870.512181	18717.195000	1769.475586	-27.735640
-28870.512181	18717.195000	1768.467773	20.987282
-28870.512181	18717.195000	1767.460938	-167.541336
-28870.512181	18717.195000	1766.453125	14.000900
-28870.512181	18717.195000	1765.445313	43.702084
-28870.512181	18717.195000	1764.437500	241.720261
-28870.512181	18717.195000	1763.428711	-96.065186
-28870.512181	18717.195000	1762.420898	-14.237662
-28870.512181	18717.195000	1761.412109	169.446075
-28870.512181	18717.195000	1760.403320	130.356369
-28870.512181	18717.195000	1759.393555	88.908684
-28870.512181	18717.195000	1758.384766	87.728676
-28870.512181	18717.195000	1757.375000	6.039017
-28870.512181	18717.195000	1756.366211	21.433149
-28870.512181	18717.195000	1755.356445	252.199173
-28870.512181	18717.195000	1754.345703	106.613274
-28870.512181	18717.195000	1753.335938	-15.266220
-28870.512181	18717.195000	1752.325195	-37.754765
-28870.512181	18717.195000	1751.315430	84.025314
-28870.512181	18717.195000	1750.304688	-104.010010
-28870.512181	18717.195000	1749.292969	-119.398026
-28870.512181	18717.195000	1748.282227	-75.695572
-28870.512181	18717.195000	1747.270508	138.136322
-28870.512181	18717.195000	1746.259766	47.075996
-28870.512181	18717.195000	1745.248047	-43.955772
-28870.512181	18717.195000	1744.235352	25.648272
-28870.512181	18717.195000	1743.223633	149.529617
-28870.512181	18717.195000	1742.211914	112.806755
-28870.512181	18717.195000	1741.199219	26.518105
-28870.512181	18717.195000	1740.186523	-26.705103
-28870.512181	18717.195000	1739.173828	-138.908905
-28870.512181	18717.195000	1738.160156	-41.108624
-28870.512181	18717.195000	1737.147461	-2.324788
-28870.512181	18717.195000	1736.133789	-159.303757
-28870.512181	18717.195000	1735.120117	115.253731
-28870.512181	18717.195000	1734.106445	76.162971
-28870.512181	18717.195000	1733.091797	230.348053
-28870.512181	18717.195000	1732.078125	186.516083
-28870.512181	18717.195000	1731.063477	-104.692665
-28870.512181	18717.195000	1730.048828	-25.972027
-28870.512181	18717.195000	1729.034180	208.147583
-28870.512181	18717.195000	1728.019531	-57.029243
-28870.512181	18717.195000	1727.003906	-173.796265
-28870.512181	18717.195000	1725.988281	154.338272
-28870.512181	18717.195000	1724.972656	169.341049
-28870.512181	18717.195000	1723.957031	-55.668915
-28870.512181	18717.195000	1722.941406	58.148132
-28870.512181	18717.195000	1721.924805	-30.359991
-28870.512181	18717.195000	1720.909180	-156.471283
-28870.512181	18717.195000	1719.892578	267.610596
-28870.512181	18717.195000	1718.875977	-60.687981
-28870.512181	18717.195000	1717.858398	142.273758
-28870.512181	18717.195000	1716.841797	190.059692
-28870.512181	18717.195000	1715.824219	-135.720428
-28870.512181	18717.195000	1714.806641	-24.503458
-28870.512181	18717.195000	1713.789063	13.858960
-28870.512181	18717.195000	1712.770508	14.627656
-28870.512181	18717.195000	1711.752930	240.743607
-28870.512181	18717.195000	1710.734375	112.355492
-28870.512181	18717.195000	1709.715820	-15.994928
-28870.512181	18717.195000	1708.697266	78.575081
-28870.512181	18717.195000	1707.678711	133.218765
-28870.512181	18717.195000	1706.659180	77.603149
-28870.512181	18717.195000	1705.640625	-163.243713
-28870.512181	18717.195000	1704.621094	-129.722092
-28870.512181	18717.195000	1703.600586	138.164993
-28870.512181	18717.195000	1702.581055	-55.724262
-28870.512181	18717.195000	1701.561523	-36.339050
-28870.512181	18717.195000	1700.541016	15.821585
-28870.512181	18717.195000	1699.520508	-121.761986
-28870.512181	18717.195000	1698.500000	124.725616
-28870.512181	18717.195000	1697.478516	94.843918
-28870.512181	18717.195000	1696.458008	102.412224
-28870.512181	18717.195000	1695.436523	184.853317
-28870.512181	18717.195000	1694.415039	178.336121
-28870.512181	18717.195000	1693.393555	50.157486
-28870.512181	18717.195000	1692.372070	22.589842
-28870.512181	18717.195000	1691.349609	-112.550507
-28870.512181	18717.195000	1690.327148	287.760895
-28870.512181	18717.195000	1689.304688	-64.803139
-28870.512181	18717.195000	1688.282227	82.905846
-28870.512181	18717.195000	1687.259766	204.839981
-28870.512181	18717.195000	1686.236328	-5.034100
-28870.512181	18717.195000	1685.213867	119.178421
-28870.512181	18717.195000	1684.190430	163.927429
-28870.512181	18717.195000	1683.166016	19.519543
-28870.512181	18717.195000	1682.142578	241.661163
-28870.512181	18717.195000	1681.119141	41.249603
-28870.512181	18717.195000	1680.094727	-16.751486
-28870.512181	18717.195000	1679.070313	104.905182
-28870.512181	18717.195000	1678.045898	263.823151
-28870.512181	18717.195000	1677.020508	238.423065
-28870.512181	18717.195000	1675.996094	245.662521
-28870.512181	18717.195000	1674.970703	-66.502960
-28870.512181	18717.195000	1673.945313	82.948418
-28870.512181	18717.195000	1672.919922	143.772552
-28870.512181	18717.195000	1671.893555	188.251373
-28870.512181	18717.195000	1670.868164	179.118988
-28870.512181	18717.195000	1669.841797	62.840584
-28870.512181	18717.195000	1668.815430	277.256378
-28870.512181	18717.195000	1667.789063	181.929916
-28870.512181	18717.195000	1666.761719	42.400917
-28870.512181	18717.195000	1665.735352	333.456299
-28870.512181	18717.195000	1664.708008	-55.044250
-28870.512181	18717.195000	1663.680664	159.121368
-28870.512181	18717.195000	1662.653320	187.117294
-28870.512181	18717.195000	1661.625000	68.585739
-28870.512181	18717.195000	1660.597656	184.912430
-28870.512181	18717.195000	1659.569336	124.515495
-28870.512181	18717.195000	1658.541016	108.286095
-28870.512181	18717.195000	1657.512695	201.263382
-28870.512181	18717.195000	1656.483398	89.748703
-28870.512181	18717.195000	1655.455078	333.647461
-28870.512181	18717.195000	1654.425781	433.456757
-28870.512181	18717.195000	1653.396484	319.602020
-28870.512181	18717.195000	1652.366211	182.565247
-28870.512181	18717.195000	1651.336914	293.913055
-28870.512181	18717.195000	1650.306641	282.217682
-28870.512181	18717.195000	1649.276367	238.033554
-28870.512181	18717.195000	1648.246094	135.864639
-28870.512181	18717.195000	1647.215820	427.983551
-28870.512181	18717.195000	1646.185547	237.681442
-28870.512181	18717.195000	1645.154297	443.867981
-28870.512181	18717.195000	1644.123047	334.738251
-28870.512181	18717.195000	1643.091797	281.256226
-28870.512181	18717.195000	1642.060547	573.007019
-28870.512181	18717.195000	1641.028320	510.211823
-28870.512181	18717.195000	1639.997070	514.594727
-28870.512181	18717.195000	1638.964844	336.034485
-28870.512181	18717.195000	1637.931641	419.142517
-28870.512181	18717.195000	1636.899414	509.152802
-28870.512181	18717.195000	1635.867188	437.120422
-28870.512181	18717.195000	1634.833984	372.047852
-28870.512181	18717.195000	1633.800781	385.643890
-28870.512181	18717.195000	1632.767578	304.396057
-28870.512181	18717.195000	1631.734375	385.040863
-28870.512181	18717.195000	1630.700195	259.877533
-28870.512181	18717.195000	1629.666016	439.878693
-28870.512181	18717.195000	1628.631836	261.579620
-28870.512181	18717.195000	1627.597656	374.482544
-28870.512181	18717.195000	1626.563477	413.406921
-28870.512181	18717.195000	1625.528320	602.442078
-28870.512181	18717.195000	1624.493164	498.112335
-28870.512181	18717.195000	1623.458008	569.289063
-28870.512181	18717.195000	1622.422852	525.009583
-28870.512181	18717.195000	1621.387695	513.051392
-28870.512181	18717.195000	1620.351563	415.711761
-28870.512181	18717.195000	1619.315430	496.046448
-28870.512181	18717.195000	1618.279297	341.068329
-28870.512181	18717.195000	1617.243164	555.130127
-28870.512181	18717.195000	1616.207031	517.779053
-28870.512181	18717.195000	1615.169922	584.172546
-28870.512181	18717.195000	1614.132813	629.791321
-28870.512181	18717.195000	1613.095703	580.906006
-28870.512181	18717.195000	1612.058594	743.995422
-28870.512181	18717.195000	1611.020508	563.798157
-28870.512181	18717.195000	1609.983398	584.029053
-28870.512181	18717.195000	1608.945313	583.523621
-28870.512181	18717.195000	1607.907227	757.975281
-28870.512181	18717.195000	1606.868164	791.952820
-28870.512181	18717.195000	1605.830078	888.044128
-28870.512181	18717.195000	1604.791016	744.814087
-28870.512181	18717.195000	1603.751953	912.180847
-28870.512181	18717.195000	1602.712891	923.086121
-28870.512181	18717.195000	1601.673828	862.702026
-28870.512181	18717.195000	1600.633789	880.503540
-28870.512181	18717.195000	1599.594727	684.530701
