#X		#Y		#Wave		#Intensity
30895.713457	1192.641500	1999.980469	-12.292709
30895.713457	1192.641500	1999.016602	66.395836
30895.713457	1192.641500	1998.052734	-149.208527
30895.713457	1192.641500	1997.087891	-70.104660
30895.713457	1192.641500	1996.123047	-172.167801
30895.713457	1192.641500	1995.158203	-21.777834
30895.713457	1192.641500	1994.193359	39.139820
30895.713457	1192.641500	1993.228516	92.361229
30895.713457	1192.641500	1992.262695	21.537813
30895.713457	1192.641500	1991.297852	-148.510010
30895.713457	1192.641500	1990.332031	97.070839
30895.713457	1192.641500	1989.366211	8.291677
30895.713457	1192.641500	1988.399414	99.940170
30895.713457	1192.641500	1987.433594	104.772537
30895.713457	1192.641500	1986.466797	-93.383377
30895.713457	1192.641500	1985.500977	71.813652
30895.713457	1192.641500	1984.534180	9.328585
30895.713457	1192.641500	1983.567383	-107.690575
30895.713457	1192.641500	1982.599609	170.561432
30895.713457	1192.641500	1981.632813	43.331112
30895.713457	1192.641500	1980.665039	-42.016685
30895.713457	1192.641500	1979.697266	186.182877
30895.713457	1192.641500	1978.729492	51.143791
30895.713457	1192.641500	1977.761719	9.827951
30895.713457	1192.641500	1976.792969	136.245987
30895.713457	1192.641500	1975.825195	-38.621555
30895.713457	1192.641500	1974.856445	225.675034
30895.713457	1192.641500	1973.887695	171.488815
30895.713457	1192.641500	1972.918945	132.000305
30895.713457	1192.641500	1971.949219	38.154503
30895.713457	1192.641500	1970.980469	-50.839321
30895.713457	1192.641500	1970.010742	-70.879425
30895.713457	1192.641500	1969.041016	118.494225
30895.713457	1192.641500	1968.071289	-197.498306
30895.713457	1192.641500	1967.101563	6.416132
30895.713457	1192.641500	1966.130859	-50.962769
30895.713457	1192.641500	1965.161133	100.944992
30895.713457	1192.641500	1964.190430	-20.628822
30895.713457	1192.641500	1963.219727	-43.754951
30895.713457	1192.641500	1962.249023	16.745527
30895.713457	1192.641500	1961.277344	99.300308
30895.713457	1192.641500	1960.306641	-91.384315
30895.713457	1192.641500	1959.334961	96.813293
30895.713457	1192.641500	1958.363281	68.415092
30895.713457	1192.641500	1957.391602	3.077072
30895.713457	1192.641500	1956.419922	-67.212349
30895.713457	1192.641500	1955.447266	32.100574
30895.713457	1192.641500	1954.474609	148.530365
30895.713457	1192.641500	1953.501953	28.947533
30895.713457	1192.641500	1952.529297	-51.324894
30895.713457	1192.641500	1951.556641	158.266510
30895.713457	1192.641500	1950.583984	109.844444
30895.713457	1192.641500	1949.610352	46.667427
30895.713457	1192.641500	1948.636719	84.141411
30895.713457	1192.641500	1947.663086	-69.904617
30895.713457	1192.641500	1946.689453	19.051611
30895.713457	1192.641500	1945.715820	29.421459
30895.713457	1192.641500	1944.741211	49.572796
30895.713457	1192.641500	1943.767578	37.803429
30895.713457	1192.641500	1942.792969	35.823883
30895.713457	1192.641500	1941.818359	-2.957260
30895.713457	1192.641500	1940.842773	-7.422498
30895.713457	1192.641500	1939.868164	-97.692574
30895.713457	1192.641500	1938.892578	111.032936
30895.713457	1192.641500	1937.916992	-106.668152
30895.713457	1192.641500	1936.941406	190.144211
30895.713457	1192.641500	1935.965820	168.425629
30895.713457	1192.641500	1934.990234	234.864029
30895.713457	1192.641500	1934.013672	-29.263945
30895.713457	1192.641500	1933.037109	29.824379
30895.713457	1192.641500	1932.060547	44.828979
30895.713457	1192.641500	1931.083984	-55.185959
30895.713457	1192.641500	1930.107422	-57.306709
30895.713457	1192.641500	1929.129883	104.457893
30895.713457	1192.641500	1928.153320	163.443649
30895.713457	1192.641500	1927.175781	-0.106112
30895.713457	1192.641500	1926.198242	80.877075
30895.713457	1192.641500	1925.219727	105.612190
30895.713457	1192.641500	1924.242188	-13.845460
30895.713457	1192.641500	1923.263672	-262.754669
30895.713457	1192.641500	1922.285156	30.755516
30895.713457	1192.641500	1921.306641	-61.746822
30895.713457	1192.641500	1920.328125	50.916660
30895.713457	1192.641500	1919.349609	7.284140
30895.713457	1192.641500	1918.370117	32.023018
30895.713457	1192.641500	1917.391602	-16.459723
30895.713457	1192.641500	1916.412109	-113.722466
30895.713457	1192.641500	1915.431641	-101.155418
30895.713457	1192.641500	1914.452148	1.666305
30895.713457	1192.641500	1913.472656	38.609615
30895.713457	1192.641500	1912.492188	85.298737
30895.713457	1192.641500	1911.511719	58.841919
30895.713457	1192.641500	1910.531250	39.715431
30895.713457	1192.641500	1909.550781	81.528328
30895.713457	1192.641500	1908.569336	23.435970
30895.713457	1192.641500	1907.588867	11.659245
30895.713457	1192.641500	1906.607422	46.171284
30895.713457	1192.641500	1905.625977	-138.485367
30895.713457	1192.641500	1904.644531	8.055493
30895.713457	1192.641500	1903.662109	40.139534
30895.713457	1192.641500	1902.680664	-47.035076
30895.713457	1192.641500	1901.698242	-56.302895
30895.713457	1192.641500	1900.715820	34.188969
30895.713457	1192.641500	1899.733398	-118.587967
30895.713457	1192.641500	1898.750000	78.904236
30895.713457	1192.641500	1897.767578	-3.294682
30895.713457	1192.641500	1896.784180	-90.317680
30895.713457	1192.641500	1895.800781	60.898403
30895.713457	1192.641500	1894.817383	-35.811279
30895.713457	1192.641500	1893.833984	83.765343
30895.713457	1192.641500	1892.850586	91.558113
30895.713457	1192.641500	1891.866211	-82.806786
30895.713457	1192.641500	1890.881836	-74.975334
30895.713457	1192.641500	1889.897461	-130.267288
30895.713457	1192.641500	1888.913086	-136.984833
30895.713457	1192.641500	1887.927734	-112.145897
30895.713457	1192.641500	1886.943359	0.042771
30895.713457	1192.641500	1885.958008	-89.172028
30895.713457	1192.641500	1884.972656	112.723236
30895.713457	1192.641500	1883.987305	-78.331055
30895.713457	1192.641500	1883.001953	26.501959
30895.713457	1192.641500	1882.015625	-89.311371
30895.713457	1192.641500	1881.029297	56.690159
30895.713457	1192.641500	1880.042969	-143.902267
30895.713457	1192.641500	1879.056641	-53.673229
30895.713457	1192.641500	1878.070313	63.167152
30895.713457	1192.641500	1877.083984	-42.860767
30895.713457	1192.641500	1876.096680	-51.991402
30895.713457	1192.641500	1875.109375	-286.281708
30895.713457	1192.641500	1874.122070	116.134796
30895.713457	1192.641500	1873.134766	0.480102
30895.713457	1192.641500	1872.146484	56.662285
30895.713457	1192.641500	1871.159180	8.788804
30895.713457	1192.641500	1870.170898	-89.868881
30895.713457	1192.641500	1869.182617	-65.161240
30895.713457	1192.641500	1868.194336	-45.307274
30895.713457	1192.641500	1867.205078	-20.635794
30895.713457	1192.641500	1866.216797	-24.987076
30895.713457	1192.641500	1865.227539	-80.095161
30895.713457	1192.641500	1864.238281	-45.799274
30895.713457	1192.641500	1863.249023	-55.010368
30895.713457	1192.641500	1862.259766	-71.476303
30895.713457	1192.641500	1861.269531	85.909538
30895.713457	1192.641500	1860.279297	30.764977
30895.713457	1192.641500	1859.290039	-65.408821
30895.713457	1192.641500	1858.298828	50.812050
30895.713457	1192.641500	1857.308594	171.798431
30895.713457	1192.641500	1856.318359	-124.634605
30895.713457	1192.641500	1855.327148	85.545219
30895.713457	1192.641500	1854.335938	177.460175
30895.713457	1192.641500	1853.344727	-99.578079
30895.713457	1192.641500	1852.353516	35.686470
30895.713457	1192.641500	1851.362305	76.879929
30895.713457	1192.641500	1850.370117	-2.452839
30895.713457	1192.641500	1849.377930	43.502907
30895.713457	1192.641500	1848.385742	115.913315
30895.713457	1192.641500	1847.393555	-16.442175
30895.713457	1192.641500	1846.401367	284.652863
30895.713457	1192.641500	1845.408203	371.341339
30895.713457	1192.641500	1844.415039	51.181225
30895.713457	1192.641500	1843.421875	27.119963
30895.713457	1192.641500	1842.428711	-47.490761
30895.713457	1192.641500	1841.435547	53.509354
30895.713457	1192.641500	1840.441406	84.687347
30895.713457	1192.641500	1839.448242	-23.654436
30895.713457	1192.641500	1838.454102	7.459723
30895.713457	1192.641500	1837.459961	223.624680
30895.713457	1192.641500	1836.464844	103.195473
30895.713457	1192.641500	1835.470703	-55.671318
30895.713457	1192.641500	1834.475586	-60.756065
30895.713457	1192.641500	1833.480469	30.204695
30895.713457	1192.641500	1832.485352	3.414742
30895.713457	1192.641500	1831.490234	60.634987
30895.713457	1192.641500	1830.495117	300.244995
30895.713457	1192.641500	1829.499023	83.678200
30895.713457	1192.641500	1828.502930	-24.858896
30895.713457	1192.641500	1827.506836	200.109009
30895.713457	1192.641500	1826.510742	17.138765
30895.713457	1192.641500	1825.513672	119.604042
30895.713457	1192.641500	1824.517578	90.098885
30895.713457	1192.641500	1823.520508	-68.909363
30895.713457	1192.641500	1822.523438	-172.771988
30895.713457	1192.641500	1821.526367	128.385757
30895.713457	1192.641500	1820.529297	206.537750
30895.713457	1192.641500	1819.531250	193.572571
30895.713457	1192.641500	1818.533203	5.708007
30895.713457	1192.641500	1817.535156	57.344704
30895.713457	1192.641500	1816.537109	82.572777
30895.713457	1192.641500	1815.539063	153.222595
30895.713457	1192.641500	1814.540039	171.135147
30895.713457	1192.641500	1813.541992	-16.808731
30895.713457	1192.641500	1812.542969	-56.399517
30895.713457	1192.641500	1811.543945	124.042397
30895.713457	1192.641500	1810.543945	-54.389210
30895.713457	1192.641500	1809.544922	11.094626
30895.713457	1192.641500	1808.544922	28.679138
30895.713457	1192.641500	1807.544922	-23.118908
30895.713457	1192.641500	1806.544922	285.909821
30895.713457	1192.641500	1805.544922	155.115845
30895.713457	1192.641500	1804.544922	76.868141
30895.713457	1192.641500	1803.543945	-111.283768
30895.713457	1192.641500	1802.542969	65.943344
30895.713457	1192.641500	1801.541992	40.098209
30895.713457	1192.641500	1800.541016	152.654404
30895.713457	1192.641500	1799.539063	55.073841
30895.713457	1192.641500	1798.538086	129.278198
30895.713457	1192.641500	1797.536133	84.099014
30895.713457	1192.641500	1796.534180	198.690033
30895.713457	1192.641500	1795.532227	150.999985
30895.713457	1192.641500	1794.529297	205.790817
30895.713457	1192.641500	1793.527344	-4.123522
30895.713457	1192.641500	1792.524414	129.198792
30895.713457	1192.641500	1791.521484	128.951401
30895.713457	1192.641500	1790.518555	121.488876
30895.713457	1192.641500	1789.514648	128.250626
30895.713457	1192.641500	1788.511719	208.778336
30895.713457	1192.641500	1787.507813	-8.455480
30895.713457	1192.641500	1786.503906	-11.402794
30895.713457	1192.641500	1785.500000	133.162582
30895.713457	1192.641500	1784.496094	-17.504353
30895.713457	1192.641500	1783.491211	-132.497696
30895.713457	1192.641500	1782.486328	-73.850639
30895.713457	1192.641500	1781.481445	-46.218781
30895.713457	1192.641500	1780.476563	40.783787
30895.713457	1192.641500	1779.471680	-29.245098
30895.713457	1192.641500	1778.465820	76.589935
30895.713457	1192.641500	1777.460938	108.636879
30895.713457	1192.641500	1776.455078	59.799980
30895.713457	1192.641500	1775.449219	58.425037
30895.713457	1192.641500	1774.442383	23.717245
30895.713457	1192.641500	1773.436523	79.200005
30895.713457	1192.641500	1772.429688	96.591515
30895.713457	1192.641500	1771.422852	52.176380
30895.713457	1192.641500	1770.416016	31.439754
30895.713457	1192.641500	1769.409180	-79.543335
30895.713457	1192.641500	1768.402344	63.317760
30895.713457	1192.641500	1767.394531	-83.368835
30895.713457	1192.641500	1766.386719	47.424068
30895.713457	1192.641500	1765.378906	-142.039490
30895.713457	1192.641500	1764.371094	-1.953474
30895.713457	1192.641500	1763.362305	-25.563021
30895.713457	1192.641500	1762.354492	-27.904079
30895.713457	1192.641500	1761.345703	83.412025
30895.713457	1192.641500	1760.336914	-56.514748
30895.713457	1192.641500	1759.328125	-4.604361
30895.713457	1192.641500	1758.318359	40.098431
30895.713457	1192.641500	1757.308594	-78.665527
30895.713457	1192.641500	1756.299805	98.454285
30895.713457	1192.641500	1755.290039	52.941456
30895.713457	1192.641500	1754.279297	-39.963974
30895.713457	1192.641500	1753.269531	4.318204
30895.713457	1192.641500	1752.258789	-55.580376
30895.713457	1192.641500	1751.249023	-82.416100
30895.713457	1192.641500	1750.238281	-128.242172
30895.713457	1192.641500	1749.226563	-133.943481
30895.713457	1192.641500	1748.215820	47.017002
30895.713457	1192.641500	1747.204102	64.762466
30895.713457	1192.641500	1746.193359	186.393738
30895.713457	1192.641500	1745.181641	31.502478
30895.713457	1192.641500	1744.168945	134.031006
30895.713457	1192.641500	1743.157227	130.187057
30895.713457	1192.641500	1742.144531	60.153694
30895.713457	1192.641500	1741.132813	32.567699
30895.713457	1192.641500	1740.120117	-47.013130
30895.713457	1192.641500	1739.106445	-67.656174
30895.713457	1192.641500	1738.093750	15.442783
30895.713457	1192.641500	1737.080078	100.787453
30895.713457	1192.641500	1736.067383	-85.171158
30895.713457	1192.641500	1735.053711	101.394623
30895.713457	1192.641500	1734.040039	28.502970
30895.713457	1192.641500	1733.025391	101.686768
30895.713457	1192.641500	1732.011719	-110.358231
30895.713457	1192.641500	1730.997070	-4.340992
30895.713457	1192.641500	1729.982422	-126.929543
30895.713457	1192.641500	1728.967773	40.135227
30895.713457	1192.641500	1727.952148	91.675972
30895.713457	1192.641500	1726.937500	16.003437
30895.713457	1192.641500	1725.921875	-125.626137
30895.713457	1192.641500	1724.906250	-93.129402
30895.713457	1192.641500	1723.890625	153.394409
30895.713457	1192.641500	1722.875000	39.831436
30895.713457	1192.641500	1721.858398	36.775490
30895.713457	1192.641500	1720.841797	-206.206375
30895.713457	1192.641500	1719.825195	-75.346161
30895.713457	1192.641500	1718.808594	-71.539909
30895.713457	1192.641500	1717.791992	68.504837
30895.713457	1192.641500	1716.774414	-111.144753
30895.713457	1192.641500	1715.756836	202.552383
30895.713457	1192.641500	1714.739258	95.622108
30895.713457	1192.641500	1713.721680	-117.013191
30895.713457	1192.641500	1712.704102	-83.103012
30895.713457	1192.641500	1711.685547	23.489876
30895.713457	1192.641500	1710.667969	-36.654957
30895.713457	1192.641500	1709.649414	-193.061447
30895.713457	1192.641500	1708.630859	37.636192
30895.713457	1192.641500	1707.611328	-186.889847
30895.713457	1192.641500	1706.592773	-12.697186
30895.713457	1192.641500	1705.573242	-16.848265
30895.713457	1192.641500	1704.553711	32.857929
30895.713457	1192.641500	1703.534180	0.445433
30895.713457	1192.641500	1702.513672	-74.207741
30895.713457	1192.641500	1701.494141	-36.422256
30895.713457	1192.641500	1700.473633	12.989894
30895.713457	1192.641500	1699.453125	-122.701584
30895.713457	1192.641500	1698.432617	-127.270462
30895.713457	1192.641500	1697.412109	-64.004166
30895.713457	1192.641500	1696.390625	27.258244
30895.713457	1192.641500	1695.369141	88.003532
30895.713457	1192.641500	1694.347656	50.394489
30895.713457	1192.641500	1693.326172	-179.085785
30895.713457	1192.641500	1692.304688	-64.712952
30895.713457	1192.641500	1691.282227	12.134666
30895.713457	1192.641500	1690.260742	-53.712936
30895.713457	1192.641500	1689.238281	-112.586380
30895.713457	1192.641500	1688.214844	-28.937225
30895.713457	1192.641500	1687.192383	17.250389
30895.713457	1192.641500	1686.168945	-114.196213
30895.713457	1192.641500	1685.146484	72.031990
30895.713457	1192.641500	1684.123047	-71.153854
30895.713457	1192.641500	1683.099609	51.841114
30895.713457	1192.641500	1682.075195	-65.718201
30895.713457	1192.641500	1681.051758	-68.905205
30895.713457	1192.641500	1680.027344	44.525883
30895.713457	1192.641500	1679.002930	87.874237
30895.713457	1192.641500	1677.978516	189.475632
30895.713457	1192.641500	1676.953125	-54.182575
30895.713457	1192.641500	1675.928711	313.132324
30895.713457	1192.641500	1674.903320	162.706802
30895.713457	1192.641500	1673.877930	229.061890
30895.713457	1192.641500	1672.852539	94.936737
30895.713457	1192.641500	1671.826172	33.038292
30895.713457	1192.641500	1670.800781	255.330124
30895.713457	1192.641500	1669.774414	88.536812
30895.713457	1192.641500	1668.748047	19.568333
30895.713457	1192.641500	1667.721680	192.713623
30895.713457	1192.641500	1666.694336	172.546722
30895.713457	1192.641500	1665.667969	315.266876
30895.713457	1192.641500	1664.640625	113.520256
30895.713457	1192.641500	1663.613281	251.463135
30895.713457	1192.641500	1662.585938	217.200867
30895.713457	1192.641500	1661.557617	257.321991
30895.713457	1192.641500	1660.530273	127.681412
30895.713457	1192.641500	1659.501953	18.968945
30895.713457	1192.641500	1658.473633	24.148638
30895.713457	1192.641500	1657.444336	115.259155
30895.713457	1192.641500	1656.416016	183.085251
30895.713457	1192.641500	1655.386719	267.104706
30895.713457	1192.641500	1654.358398	346.430481
30895.713457	1192.641500	1653.328125	170.274261
30895.713457	1192.641500	1652.298828	453.808044
30895.713457	1192.641500	1651.269531	405.312683
30895.713457	1192.641500	1650.239258	609.734924
30895.713457	1192.641500	1649.208984	563.489197
30895.713457	1192.641500	1648.178711	579.869446
30895.713457	1192.641500	1647.148438	515.052429
30895.713457	1192.641500	1646.117188	526.745483
30895.713457	1192.641500	1645.086914	633.475159
30895.713457	1192.641500	1644.055664	568.616272
30895.713457	1192.641500	1643.024414	591.825562
30895.713457	1192.641500	1641.992188	536.222534
30895.713457	1192.641500	1640.960938	740.080933
30895.713457	1192.641500	1639.928711	670.545898
30895.713457	1192.641500	1638.896484	793.215698
30895.713457	1192.641500	1637.864258	869.522949
30895.713457	1192.641500	1636.832031	825.426697
30895.713457	1192.641500	1635.798828	739.669373
30895.713457	1192.641500	1634.766602	945.481750
30895.713457	1192.641500	1633.733398	878.223938
30895.713457	1192.641500	1632.699219	884.983765
30895.713457	1192.641500	1631.666016	894.059448
30895.713457	1192.641500	1630.632813	1023.346741
30895.713457	1192.641500	1629.598633	995.386047
30895.713457	1192.641500	1628.564453	1046.008179
30895.713457	1192.641500	1627.530273	1124.335083
30895.713457	1192.641500	1626.495117	1258.062500
30895.713457	1192.641500	1625.460938	1121.510986
30895.713457	1192.641500	1624.425781	1275.970459
30895.713457	1192.641500	1623.390625	1536.577026
30895.713457	1192.641500	1622.355469	1598.563354
30895.713457	1192.641500	1621.319336	1972.088989
30895.713457	1192.641500	1620.284180	1874.757446
30895.713457	1192.641500	1619.248047	1927.415405
30895.713457	1192.641500	1618.211914	1880.875000
30895.713457	1192.641500	1617.174805	1905.839722
30895.713457	1192.641500	1616.138672	1806.305908
30895.713457	1192.641500	1615.101563	1584.631592
30895.713457	1192.641500	1614.065430	1379.197998
30895.713457	1192.641500	1613.027344	1397.354126
30895.713457	1192.641500	1611.990234	1337.194092
30895.713457	1192.641500	1610.953125	1078.973389
30895.713457	1192.641500	1609.915039	1173.216064
30895.713457	1192.641500	1608.876953	1179.939087
30895.713457	1192.641500	1607.838867	1138.331909
30895.713457	1192.641500	1606.800781	1260.174805
30895.713457	1192.641500	1605.761719	1202.483032
30895.713457	1192.641500	1604.723633	1388.724121
30895.713457	1192.641500	1603.684570	1151.644409
30895.713457	1192.641500	1602.644531	1119.355347
30895.713457	1192.641500	1601.605469	1266.464844
30895.713457	1192.641500	1600.566406	1271.004883
30895.713457	1192.641500	1599.526367	1408.868774
30895.713457	1192.641500	1598.486328	1277.831055
30895.713457	1192.641500	1597.446289	1355.952515
30895.713457	1192.641500	1596.405273	1395.008057
30895.713457	1192.641500	1595.365234	1296.283325
30895.713457	1192.641500	1594.324219	1261.910645
30895.713457	1192.641500	1593.283203	1395.175537
30895.713457	1192.641500	1592.242188	1427.422485
30895.713457	1192.641500	1591.200195	1227.891846
30895.713457	1192.641500	1590.159180	1198.271973
30895.713457	1192.641500	1589.117188	1370.560913
30895.713457	1192.641500	1588.075195	1416.670654
30895.713457	1192.641500	1587.032227	1203.662964
30895.713457	1192.641500	1585.990234	1460.784424
30895.713457	1192.641500	1584.947266	1172.281494
30895.713457	1192.641500	1583.904297	1339.994751
30895.713457	1192.641500	1582.861328	1351.870361
