#X		#Y		#Wave		#Intensity
23204.150000	2448.972500	1999.980469	31.354065
23204.150000	2448.972500	1999.016602	107.159790
23204.150000	2448.972500	1998.052734	-65.115791
23204.150000	2448.972500	1997.087891	-79.423927
23204.150000	2448.972500	1996.123047	-141.496262
23204.150000	2448.972500	1995.158203	-10.997352
23204.150000	2448.972500	1994.193359	-121.443741
23204.150000	2448.972500	1993.228516	37.430817
23204.150000	2448.972500	1992.262695	-4.894710
23204.150000	2448.972500	1991.297852	-171.581741
23204.150000	2448.972500	1990.332031	151.261642
23204.150000	2448.972500	1989.366211	-6.617679
23204.150000	2448.972500	1988.399414	-380.205444
23204.150000	2448.972500	1987.433594	74.445465
23204.150000	2448.972500	1986.466797	-15.644179
23204.150000	2448.972500	1985.500977	133.642090
23204.150000	2448.972500	1984.534180	111.831985
23204.150000	2448.972500	1983.567383	-174.898758
23204.150000	2448.972500	1982.599609	141.025452
23204.150000	2448.972500	1981.632813	-101.997238
23204.150000	2448.972500	1980.665039	-81.008560
23204.150000	2448.972500	1979.697266	87.767311
23204.150000	2448.972500	1978.729492	58.546257
23204.150000	2448.972500	1977.761719	-20.409292
23204.150000	2448.972500	1976.792969	142.227783
23204.150000	2448.972500	1975.825195	-231.104507
23204.150000	2448.972500	1974.856445	49.287773
23204.150000	2448.972500	1973.887695	274.983582
23204.150000	2448.972500	1972.918945	132.763290
23204.150000	2448.972500	1971.949219	-4.758074
23204.150000	2448.972500	1970.980469	32.558407
23204.150000	2448.972500	1970.010742	-191.720978
23204.150000	2448.972500	1969.041016	227.146866
23204.150000	2448.972500	1968.071289	246.390076
23204.150000	2448.972500	1967.101563	134.804871
23204.150000	2448.972500	1966.130859	-63.176620
23204.150000	2448.972500	1965.161133	-15.002086
23204.150000	2448.972500	1964.190430	-26.142990
23204.150000	2448.972500	1963.219727	1.922872
23204.150000	2448.972500	1962.249023	-73.593628
23204.150000	2448.972500	1961.277344	261.762756
23204.150000	2448.972500	1960.306641	89.923904
23204.150000	2448.972500	1959.334961	348.538239
23204.150000	2448.972500	1958.363281	114.951828
23204.150000	2448.972500	1957.391602	-111.307312
23204.150000	2448.972500	1956.419922	-3.203645
23204.150000	2448.972500	1955.447266	330.913025
23204.150000	2448.972500	1954.474609	374.751709
23204.150000	2448.972500	1953.501953	133.396103
23204.150000	2448.972500	1952.529297	245.845642
23204.150000	2448.972500	1951.556641	193.568359
23204.150000	2448.972500	1950.583984	293.504639
23204.150000	2448.972500	1949.610352	-48.695229
23204.150000	2448.972500	1948.636719	-52.020222
23204.150000	2448.972500	1947.663086	-52.956318
23204.150000	2448.972500	1946.689453	56.488800
23204.150000	2448.972500	1945.715820	-40.282600
23204.150000	2448.972500	1944.741211	-107.629395
23204.150000	2448.972500	1943.767578	-69.516548
23204.150000	2448.972500	1942.792969	22.496244
23204.150000	2448.972500	1941.818359	35.975716
23204.150000	2448.972500	1940.842773	12.648020
23204.150000	2448.972500	1939.868164	-182.272568
23204.150000	2448.972500	1938.892578	176.705994
23204.150000	2448.972500	1937.916992	18.542421
23204.150000	2448.972500	1936.941406	80.902931
23204.150000	2448.972500	1935.965820	-11.071832
23204.150000	2448.972500	1934.990234	-78.530449
23204.150000	2448.972500	1934.013672	125.806625
23204.150000	2448.972500	1933.037109	352.102417
23204.150000	2448.972500	1932.060547	362.942230
23204.150000	2448.972500	1931.083984	-29.969652
23204.150000	2448.972500	1930.107422	-244.124405
23204.150000	2448.972500	1929.129883	180.247009
23204.150000	2448.972500	1928.153320	254.751495
23204.150000	2448.972500	1927.175781	96.955338
23204.150000	2448.972500	1926.198242	132.373947
23204.150000	2448.972500	1925.219727	329.125488
23204.150000	2448.972500	1924.242188	125.046600
23204.150000	2448.972500	1923.263672	13.919991
23204.150000	2448.972500	1922.285156	59.209648
23204.150000	2448.972500	1921.306641	155.807892
23204.150000	2448.972500	1920.328125	301.243622
23204.150000	2448.972500	1919.349609	-24.557899
23204.150000	2448.972500	1918.370117	-103.649086
23204.150000	2448.972500	1917.391602	100.438126
23204.150000	2448.972500	1916.412109	36.070038
23204.150000	2448.972500	1915.431641	135.228210
23204.150000	2448.972500	1914.452148	168.528549
23204.150000	2448.972500	1913.472656	-12.755691
23204.150000	2448.972500	1912.492188	-37.874622
23204.150000	2448.972500	1911.511719	-197.026123
23204.150000	2448.972500	1910.531250	-141.580856
23204.150000	2448.972500	1909.550781	-3.255323
23204.150000	2448.972500	1908.569336	-218.231506
23204.150000	2448.972500	1907.588867	-138.320618
23204.150000	2448.972500	1906.607422	31.724335
23204.150000	2448.972500	1905.625977	-158.654755
23204.150000	2448.972500	1904.644531	16.286091
23204.150000	2448.972500	1903.662109	-25.440050
23204.150000	2448.972500	1902.680664	-210.703873
23204.150000	2448.972500	1901.698242	-167.119720
23204.150000	2448.972500	1900.715820	-111.344002
23204.150000	2448.972500	1899.733398	-293.926117
23204.150000	2448.972500	1898.750000	-106.736046
23204.150000	2448.972500	1897.767578	70.696526
23204.150000	2448.972500	1896.784180	250.534622
23204.150000	2448.972500	1895.800781	-19.318228
23204.150000	2448.972500	1894.817383	-89.757500
23204.150000	2448.972500	1893.833984	-186.862350
23204.150000	2448.972500	1892.850586	-196.440491
23204.150000	2448.972500	1891.866211	124.337120
23204.150000	2448.972500	1890.881836	-108.634315
23204.150000	2448.972500	1889.897461	-93.840439
23204.150000	2448.972500	1888.913086	-299.917358
23204.150000	2448.972500	1887.927734	-163.680679
23204.150000	2448.972500	1886.943359	154.518082
23204.150000	2448.972500	1885.958008	-124.185333
23204.150000	2448.972500	1884.972656	-48.618912
23204.150000	2448.972500	1883.987305	201.555588
23204.150000	2448.972500	1883.001953	121.897041
23204.150000	2448.972500	1882.015625	-64.375137
23204.150000	2448.972500	1881.029297	-13.028688
23204.150000	2448.972500	1880.042969	-126.471657
23204.150000	2448.972500	1879.056641	-416.727356
23204.150000	2448.972500	1878.070313	-144.854309
23204.150000	2448.972500	1877.083984	-277.545837
23204.150000	2448.972500	1876.096680	-59.053432
23204.150000	2448.972500	1875.109375	-29.479124
23204.150000	2448.972500	1874.122070	-16.854252
23204.150000	2448.972500	1873.134766	114.356239
23204.150000	2448.972500	1872.146484	-23.066053
23204.150000	2448.972500	1871.159180	23.422651
23204.150000	2448.972500	1870.170898	33.610241
23204.150000	2448.972500	1869.182617	-219.810638
23204.150000	2448.972500	1868.194336	327.181244
23204.150000	2448.972500	1867.205078	330.035278
23204.150000	2448.972500	1866.216797	120.176025
23204.150000	2448.972500	1865.227539	-53.366631
23204.150000	2448.972500	1864.238281	-89.144279
23204.150000	2448.972500	1863.249023	-294.020569
23204.150000	2448.972500	1862.259766	-141.396255
23204.150000	2448.972500	1861.269531	-266.542877
23204.150000	2448.972500	1860.279297	-138.170258
23204.150000	2448.972500	1859.290039	-268.156036
23204.150000	2448.972500	1858.298828	-67.488098
23204.150000	2448.972500	1857.308594	133.068573
23204.150000	2448.972500	1856.318359	128.457153
23204.150000	2448.972500	1855.327148	396.366791
23204.150000	2448.972500	1854.335938	114.298714
23204.150000	2448.972500	1853.344727	-416.046417
23204.150000	2448.972500	1852.353516	71.053581
23204.150000	2448.972500	1851.362305	8.397013
23204.150000	2448.972500	1850.370117	-39.825298
23204.150000	2448.972500	1849.377930	1.061887
23204.150000	2448.972500	1848.385742	92.462349
23204.150000	2448.972500	1847.393555	68.168533
23204.150000	2448.972500	1846.401367	-69.349380
23204.150000	2448.972500	1845.408203	556.292480
23204.150000	2448.972500	1844.415039	158.646622
23204.150000	2448.972500	1843.421875	-19.918390
23204.150000	2448.972500	1842.428711	80.622337
23204.150000	2448.972500	1841.435547	80.014397
23204.150000	2448.972500	1840.441406	-43.335236
23204.150000	2448.972500	1839.448242	6.425861
23204.150000	2448.972500	1838.454102	46.471474
23204.150000	2448.972500	1837.459961	67.188553
23204.150000	2448.972500	1836.464844	85.407608
23204.150000	2448.972500	1835.470703	305.380157
23204.150000	2448.972500	1834.475586	-8.175696
23204.150000	2448.972500	1833.480469	199.537491
23204.150000	2448.972500	1832.485352	250.972427
23204.150000	2448.972500	1831.490234	271.075928
23204.150000	2448.972500	1830.495117	180.638641
23204.150000	2448.972500	1829.499023	378.160400
23204.150000	2448.972500	1828.502930	241.933319
23204.150000	2448.972500	1827.506836	259.207062
23204.150000	2448.972500	1826.510742	84.453949
23204.150000	2448.972500	1825.513672	22.378521
23204.150000	2448.972500	1824.517578	216.797104
23204.150000	2448.972500	1823.520508	221.619125
23204.150000	2448.972500	1822.523438	-32.563751
23204.150000	2448.972500	1821.526367	293.207214
23204.150000	2448.972500	1820.529297	86.785278
23204.150000	2448.972500	1819.531250	184.567795
23204.150000	2448.972500	1818.533203	246.256378
23204.150000	2448.972500	1817.535156	195.233643
23204.150000	2448.972500	1816.537109	452.970154
23204.150000	2448.972500	1815.539063	205.358337
23204.150000	2448.972500	1814.540039	70.195412
23204.150000	2448.972500	1813.541992	401.579895
23204.150000	2448.972500	1812.542969	84.313232
23204.150000	2448.972500	1811.543945	-15.294489
23204.150000	2448.972500	1810.543945	337.006592
23204.150000	2448.972500	1809.544922	492.952911
23204.150000	2448.972500	1808.544922	306.809784
23204.150000	2448.972500	1807.544922	125.366402
23204.150000	2448.972500	1806.544922	113.515480
23204.150000	2448.972500	1805.544922	-158.928421
23204.150000	2448.972500	1804.544922	3.357124
23204.150000	2448.972500	1803.543945	397.103546
23204.150000	2448.972500	1802.542969	55.022839
23204.150000	2448.972500	1801.541992	386.207031
23204.150000	2448.972500	1800.541016	84.511894
23204.150000	2448.972500	1799.539063	26.201511
23204.150000	2448.972500	1798.538086	220.687866
23204.150000	2448.972500	1797.536133	145.332779
23204.150000	2448.972500	1796.534180	198.640396
23204.150000	2448.972500	1795.532227	-17.734577
23204.150000	2448.972500	1794.529297	37.615845
23204.150000	2448.972500	1793.527344	431.294891
23204.150000	2448.972500	1792.524414	-50.108608
23204.150000	2448.972500	1791.521484	357.373352
23204.150000	2448.972500	1790.518555	340.415222
23204.150000	2448.972500	1789.514648	335.183990
23204.150000	2448.972500	1788.511719	3.480115
23204.150000	2448.972500	1787.507813	231.308807
23204.150000	2448.972500	1786.503906	182.687958
23204.150000	2448.972500	1785.500000	100.571434
23204.150000	2448.972500	1784.496094	-95.938431
23204.150000	2448.972500	1783.491211	411.746399
23204.150000	2448.972500	1782.486328	390.908356
23204.150000	2448.972500	1781.481445	91.591248
23204.150000	2448.972500	1780.476563	-122.194221
23204.150000	2448.972500	1779.471680	-112.597496
23204.150000	2448.972500	1778.465820	129.757767
23204.150000	2448.972500	1777.460938	77.113899
23204.150000	2448.972500	1776.455078	-94.533409
23204.150000	2448.972500	1775.449219	-95.253723
23204.150000	2448.972500	1774.442383	186.486893
23204.150000	2448.972500	1773.436523	-16.561741
23204.150000	2448.972500	1772.429688	150.676743
23204.150000	2448.972500	1771.422852	108.731346
23204.150000	2448.972500	1770.416016	232.747864
23204.150000	2448.972500	1769.409180	370.751038
23204.150000	2448.972500	1768.402344	162.082062
23204.150000	2448.972500	1767.394531	199.986633
23204.150000	2448.972500	1766.386719	126.198021
23204.150000	2448.972500	1765.378906	355.756744
23204.150000	2448.972500	1764.371094	63.426003
23204.150000	2448.972500	1763.362305	22.251644
23204.150000	2448.972500	1762.354492	-30.957109
23204.150000	2448.972500	1761.345703	-96.215706
23204.150000	2448.972500	1760.336914	-2.930093
23204.150000	2448.972500	1759.328125	-113.596657
23204.150000	2448.972500	1758.318359	-44.461384
23204.150000	2448.972500	1757.308594	-157.880692
23204.150000	2448.972500	1756.299805	149.916763
23204.150000	2448.972500	1755.290039	249.093063
23204.150000	2448.972500	1754.279297	-16.418886
23204.150000	2448.972500	1753.269531	-7.581350
23204.150000	2448.972500	1752.258789	346.383850
23204.150000	2448.972500	1751.249023	134.773132
23204.150000	2448.972500	1750.238281	-46.245438
23204.150000	2448.972500	1749.226563	-307.803223
23204.150000	2448.972500	1748.215820	21.458052
23204.150000	2448.972500	1747.204102	-176.634476
23204.150000	2448.972500	1746.193359	-34.612270
23204.150000	2448.972500	1745.181641	-34.611828
23204.150000	2448.972500	1744.168945	-237.961609
23204.150000	2448.972500	1743.157227	-28.183960
23204.150000	2448.972500	1742.144531	181.286667
23204.150000	2448.972500	1741.132813	142.622147
23204.150000	2448.972500	1740.120117	124.984970
23204.150000	2448.972500	1739.106445	71.730415
23204.150000	2448.972500	1738.093750	-257.722198
23204.150000	2448.972500	1737.080078	-124.969345
23204.150000	2448.972500	1736.067383	-108.016624
23204.150000	2448.972500	1735.053711	-393.101837
23204.150000	2448.972500	1734.040039	-44.154118
23204.150000	2448.972500	1733.025391	-65.605179
23204.150000	2448.972500	1732.011719	-162.648407
23204.150000	2448.972500	1730.997070	-10.142141
23204.150000	2448.972500	1729.982422	-227.727509
23204.150000	2448.972500	1728.967773	-82.749405
23204.150000	2448.972500	1727.952148	-213.550522
23204.150000	2448.972500	1726.937500	-102.003777
23204.150000	2448.972500	1725.921875	-75.461456
23204.150000	2448.972500	1724.906250	-260.932678
23204.150000	2448.972500	1723.890625	-6.551290
23204.150000	2448.972500	1722.875000	-208.841675
23204.150000	2448.972500	1721.858398	33.247097
23204.150000	2448.972500	1720.841797	-136.474869
23204.150000	2448.972500	1719.825195	-280.473267
23204.150000	2448.972500	1718.808594	-116.684517
23204.150000	2448.972500	1717.791992	96.197220
23204.150000	2448.972500	1716.774414	-217.559143
23204.150000	2448.972500	1715.756836	-132.017395
23204.150000	2448.972500	1714.739258	80.132286
23204.150000	2448.972500	1713.721680	245.037659
23204.150000	2448.972500	1712.704102	92.717583
23204.150000	2448.972500	1711.685547	-15.155472
23204.150000	2448.972500	1710.667969	-287.451935
23204.150000	2448.972500	1709.649414	-20.140781
23204.150000	2448.972500	1708.630859	-198.885910
23204.150000	2448.972500	1707.611328	-347.277130
23204.150000	2448.972500	1706.592773	-237.802521
23204.150000	2448.972500	1705.573242	192.657532
23204.150000	2448.972500	1704.553711	170.314926
23204.150000	2448.972500	1703.534180	-222.533844
23204.150000	2448.972500	1702.513672	-156.123825
23204.150000	2448.972500	1701.494141	-103.954956
23204.150000	2448.972500	1700.473633	41.696320
23204.150000	2448.972500	1699.453125	142.615158
23204.150000	2448.972500	1698.432617	72.381355
23204.150000	2448.972500	1697.412109	37.117729
23204.150000	2448.972500	1696.390625	-169.198654
23204.150000	2448.972500	1695.369141	134.573563
23204.150000	2448.972500	1694.347656	-139.874374
23204.150000	2448.972500	1693.326172	-114.944954
23204.150000	2448.972500	1692.304688	255.971085
23204.150000	2448.972500	1691.282227	6.861924
23204.150000	2448.972500	1690.260742	-148.768723
23204.150000	2448.972500	1689.238281	39.100410
23204.150000	2448.972500	1688.214844	123.882957
23204.150000	2448.972500	1687.192383	131.390198
23204.150000	2448.972500	1686.168945	302.251984
23204.150000	2448.972500	1685.146484	472.918915
23204.150000	2448.972500	1684.123047	-206.714035
23204.150000	2448.972500	1683.099609	183.142990
23204.150000	2448.972500	1682.075195	273.869751
23204.150000	2448.972500	1681.051758	14.343718
23204.150000	2448.972500	1680.027344	258.794861
23204.150000	2448.972500	1679.002930	642.996094
23204.150000	2448.972500	1677.978516	709.672241
23204.150000	2448.972500	1676.953125	368.028625
23204.150000	2448.972500	1675.928711	394.823059
23204.150000	2448.972500	1674.903320	225.620316
23204.150000	2448.972500	1673.877930	189.209610
23204.150000	2448.972500	1672.852539	693.335388
23204.150000	2448.972500	1671.826172	826.655701
23204.150000	2448.972500	1670.800781	782.784973
23204.150000	2448.972500	1669.774414	645.622986
23204.150000	2448.972500	1668.748047	673.723145
23204.150000	2448.972500	1667.721680	853.025452
23204.150000	2448.972500	1666.694336	668.997986
23204.150000	2448.972500	1665.667969	982.984802
23204.150000	2448.972500	1664.640625	961.656189
23204.150000	2448.972500	1663.613281	923.943237
23204.150000	2448.972500	1662.585938	1230.371826
23204.150000	2448.972500	1661.557617	1004.025085
23204.150000	2448.972500	1660.530273	1158.991943
23204.150000	2448.972500	1659.501953	1151.055420
23204.150000	2448.972500	1658.473633	1308.035645
23204.150000	2448.972500	1657.444336	1104.669678
23204.150000	2448.972500	1656.416016	1291.615845
23204.150000	2448.972500	1655.386719	1548.054688
23204.150000	2448.972500	1654.358398	1762.535400
23204.150000	2448.972500	1653.328125	1577.435669
23204.150000	2448.972500	1652.298828	1482.888672
23204.150000	2448.972500	1651.269531	1648.246704
23204.150000	2448.972500	1650.239258	1437.513916
23204.150000	2448.972500	1649.208984	1642.079956
23204.150000	2448.972500	1648.178711	1572.781128
23204.150000	2448.972500	1647.148438	1844.356567
23204.150000	2448.972500	1646.117188	1795.751709
23204.150000	2448.972500	1645.086914	2201.509033
23204.150000	2448.972500	1644.055664	2152.728027
23204.150000	2448.972500	1643.024414	2398.214355
23204.150000	2448.972500	1641.992188	2129.165283
23204.150000	2448.972500	1640.960938	2325.805664
23204.150000	2448.972500	1639.928711	2265.212891
23204.150000	2448.972500	1638.896484	2343.528809
23204.150000	2448.972500	1637.864258	2359.262207
23204.150000	2448.972500	1636.832031	2349.483887
23204.150000	2448.972500	1635.798828	2536.352051
23204.150000	2448.972500	1634.766602	2262.697266
23204.150000	2448.972500	1633.733398	2500.328857
23204.150000	2448.972500	1632.699219	2631.415771
23204.150000	2448.972500	1631.666016	2653.767334
23204.150000	2448.972500	1630.632813	2373.214844
23204.150000	2448.972500	1629.598633	2457.938232
23204.150000	2448.972500	1628.564453	2757.540771
23204.150000	2448.972500	1627.530273	2798.216553
23204.150000	2448.972500	1626.495117	3072.158691
23204.150000	2448.972500	1625.460938	2932.569092
23204.150000	2448.972500	1624.425781	3056.253174
23204.150000	2448.972500	1623.390625	3092.146484
23204.150000	2448.972500	1622.355469	3294.224121
23204.150000	2448.972500	1621.319336	3821.611328
23204.150000	2448.972500	1620.284180	3105.087646
23204.150000	2448.972500	1619.248047	3378.535156
23204.150000	2448.972500	1618.211914	3478.888916
23204.150000	2448.972500	1617.174805	3166.385498
23204.150000	2448.972500	1616.138672	3557.277100
23204.150000	2448.972500	1615.101563	3219.547363
23204.150000	2448.972500	1614.065430	3393.657715
23204.150000	2448.972500	1613.027344	4040.055908
23204.150000	2448.972500	1611.990234	3667.930176
23204.150000	2448.972500	1610.953125	3332.827637
23204.150000	2448.972500	1609.915039	3684.151123
23204.150000	2448.972500	1608.876953	3524.202148
23204.150000	2448.972500	1607.838867	3449.525146
23204.150000	2448.972500	1606.800781	3404.837402
23204.150000	2448.972500	1605.761719	3408.500488
23204.150000	2448.972500	1604.723633	3598.594238
23204.150000	2448.972500	1603.684570	3641.409668
23204.150000	2448.972500	1602.644531	3495.641113
23204.150000	2448.972500	1601.605469	3676.521973
23204.150000	2448.972500	1600.566406	3383.799316
23204.150000	2448.972500	1599.526367	3481.965332
23204.150000	2448.972500	1598.486328	3490.527344
23204.150000	2448.972500	1597.446289	3379.669678
23204.150000	2448.972500	1596.405273	3333.213135
23204.150000	2448.972500	1595.365234	3560.175781
23204.150000	2448.972500	1594.324219	3318.652588
23204.150000	2448.972500	1593.283203	3557.122803
23204.150000	2448.972500	1592.242188	3552.264648
23204.150000	2448.972500	1591.200195	3581.881836
23204.150000	2448.972500	1590.159180	3760.734131
23204.150000	2448.972500	1589.117188	3281.188721
23204.150000	2448.972500	1588.075195	3432.647705
23204.150000	2448.972500	1587.032227	3639.144043
23204.150000	2448.972500	1585.990234	3398.604248
