#X		#Y		#Wave		#Intensity
12480.564043	3949.770833	1999.980469	-28.467127
12480.564043	3949.770833	1999.016602	82.501244
12480.564043	3949.770833	1998.052734	-32.217556
12480.564043	3949.770833	1997.087891	-194.596268
12480.564043	3949.770833	1996.123047	48.815338
12480.564043	3949.770833	1995.158203	-8.195180
12480.564043	3949.770833	1994.193359	172.014801
12480.564043	3949.770833	1993.228516	205.505432
12480.564043	3949.770833	1992.262695	119.619339
12480.564043	3949.770833	1991.297852	72.849564
12480.564043	3949.770833	1990.332031	-157.536133
12480.564043	3949.770833	1989.366211	79.355141
12480.564043	3949.770833	1988.399414	58.406414
12480.564043	3949.770833	1987.433594	-42.140743
12480.564043	3949.770833	1986.466797	-7.056141
12480.564043	3949.770833	1985.500977	-24.329636
12480.564043	3949.770833	1984.534180	-46.934677
12480.564043	3949.770833	1983.567383	-22.954380
12480.564043	3949.770833	1982.599609	-266.242767
12480.564043	3949.770833	1981.632813	140.015808
12480.564043	3949.770833	1980.665039	234.524078
12480.564043	3949.770833	1979.697266	10.057509
12480.564043	3949.770833	1978.729492	-22.026566
12480.564043	3949.770833	1977.761719	-27.242243
12480.564043	3949.770833	1976.792969	31.438269
12480.564043	3949.770833	1975.825195	176.199677
12480.564043	3949.770833	1974.856445	39.341557
12480.564043	3949.770833	1973.887695	116.920593
12480.564043	3949.770833	1972.918945	154.763885
12480.564043	3949.770833	1971.949219	-7.399483
12480.564043	3949.770833	1970.980469	185.345718
12480.564043	3949.770833	1970.010742	74.580284
12480.564043	3949.770833	1969.041016	173.169235
12480.564043	3949.770833	1968.071289	37.417717
12480.564043	3949.770833	1967.101563	-22.079397
12480.564043	3949.770833	1966.130859	199.109207
12480.564043	3949.770833	1965.161133	23.515614
12480.564043	3949.770833	1964.190430	219.678650
12480.564043	3949.770833	1963.219727	-39.856510
12480.564043	3949.770833	1962.249023	27.966589
12480.564043	3949.770833	1961.277344	179.316528
12480.564043	3949.770833	1960.306641	153.325119
12480.564043	3949.770833	1959.334961	119.851830
12480.564043	3949.770833	1958.363281	-26.860466
12480.564043	3949.770833	1957.391602	185.449509
12480.564043	3949.770833	1956.419922	198.424606
12480.564043	3949.770833	1955.447266	221.145477
12480.564043	3949.770833	1954.474609	160.213867
12480.564043	3949.770833	1953.501953	96.779747
12480.564043	3949.770833	1952.529297	77.534935
12480.564043	3949.770833	1951.556641	75.437576
12480.564043	3949.770833	1950.583984	-17.584633
12480.564043	3949.770833	1949.610352	115.303177
12480.564043	3949.770833	1948.636719	144.984085
12480.564043	3949.770833	1947.663086	226.171280
12480.564043	3949.770833	1946.689453	231.215485
12480.564043	3949.770833	1945.715820	115.995514
12480.564043	3949.770833	1944.741211	0.797312
12480.564043	3949.770833	1943.767578	189.794113
12480.564043	3949.770833	1942.792969	-8.784147
12480.564043	3949.770833	1941.818359	126.179840
12480.564043	3949.770833	1940.842773	3.674390
12480.564043	3949.770833	1939.868164	47.893566
12480.564043	3949.770833	1938.892578	65.141800
12480.564043	3949.770833	1937.916992	-59.719162
12480.564043	3949.770833	1936.941406	-35.088428
12480.564043	3949.770833	1935.965820	217.331985
12480.564043	3949.770833	1934.990234	148.878006
12480.564043	3949.770833	1934.013672	14.362085
12480.564043	3949.770833	1933.037109	95.335579
12480.564043	3949.770833	1932.060547	51.484531
12480.564043	3949.770833	1931.083984	-53.498306
12480.564043	3949.770833	1930.107422	-48.316811
12480.564043	3949.770833	1929.129883	88.980560
12480.564043	3949.770833	1928.153320	11.048479
12480.564043	3949.770833	1927.175781	94.559258
12480.564043	3949.770833	1926.198242	168.297440
12480.564043	3949.770833	1925.219727	117.388046
12480.564043	3949.770833	1924.242188	49.433159
12480.564043	3949.770833	1923.263672	27.966242
12480.564043	3949.770833	1922.285156	57.851273
12480.564043	3949.770833	1921.306641	-124.723221
12480.564043	3949.770833	1920.328125	154.351120
12480.564043	3949.770833	1919.349609	-194.107544
12480.564043	3949.770833	1918.370117	36.144459
12480.564043	3949.770833	1917.391602	-192.477753
12480.564043	3949.770833	1916.412109	-32.982853
12480.564043	3949.770833	1915.431641	-73.557793
12480.564043	3949.770833	1914.452148	-26.253885
12480.564043	3949.770833	1913.472656	16.203377
12480.564043	3949.770833	1912.492188	134.280975
12480.564043	3949.770833	1911.511719	79.271912
12480.564043	3949.770833	1910.531250	-165.786804
12480.564043	3949.770833	1909.550781	120.555855
12480.564043	3949.770833	1908.569336	2.375112
12480.564043	3949.770833	1907.588867	-203.410950
12480.564043	3949.770833	1906.607422	-119.235710
12480.564043	3949.770833	1905.625977	96.454742
12480.564043	3949.770833	1904.644531	-14.138989
12480.564043	3949.770833	1903.662109	70.092361
12480.564043	3949.770833	1902.680664	-227.766006
12480.564043	3949.770833	1901.698242	-216.436432
12480.564043	3949.770833	1900.715820	50.386349
12480.564043	3949.770833	1899.733398	71.476814
12480.564043	3949.770833	1898.750000	-131.140839
12480.564043	3949.770833	1897.767578	-29.701534
12480.564043	3949.770833	1896.784180	-151.918686
12480.564043	3949.770833	1895.800781	-50.434841
12480.564043	3949.770833	1894.817383	9.735135
12480.564043	3949.770833	1893.833984	227.850723
12480.564043	3949.770833	1892.850586	-132.241745
12480.564043	3949.770833	1891.866211	-16.122688
12480.564043	3949.770833	1890.881836	-103.995636
12480.564043	3949.770833	1889.897461	-94.689201
12480.564043	3949.770833	1888.913086	-65.937309
12480.564043	3949.770833	1887.927734	-129.393692
12480.564043	3949.770833	1886.943359	-61.767246
12480.564043	3949.770833	1885.958008	-23.254585
12480.564043	3949.770833	1884.972656	-55.076279
12480.564043	3949.770833	1883.987305	0.441751
12480.564043	3949.770833	1883.001953	-169.540115
12480.564043	3949.770833	1882.015625	19.349669
12480.564043	3949.770833	1881.029297	-99.638008
12480.564043	3949.770833	1880.042969	108.584869
12480.564043	3949.770833	1879.056641	38.109196
12480.564043	3949.770833	1878.070313	-54.130386
12480.564043	3949.770833	1877.083984	-15.540085
12480.564043	3949.770833	1876.096680	98.108986
12480.564043	3949.770833	1875.109375	-42.492123
12480.564043	3949.770833	1874.122070	136.484680
12480.564043	3949.770833	1873.134766	-8.907911
12480.564043	3949.770833	1872.146484	17.552067
12480.564043	3949.770833	1871.159180	-21.319794
12480.564043	3949.770833	1870.170898	0.286697
12480.564043	3949.770833	1869.182617	-40.999062
12480.564043	3949.770833	1868.194336	140.167526
12480.564043	3949.770833	1867.205078	-2.684077
12480.564043	3949.770833	1866.216797	-99.571281
12480.564043	3949.770833	1865.227539	-27.281698
12480.564043	3949.770833	1864.238281	146.439041
12480.564043	3949.770833	1863.249023	177.551682
12480.564043	3949.770833	1862.259766	27.492579
12480.564043	3949.770833	1861.269531	82.715828
12480.564043	3949.770833	1860.279297	120.992462
12480.564043	3949.770833	1859.290039	173.708832
12480.564043	3949.770833	1858.298828	228.787064
12480.564043	3949.770833	1857.308594	71.475525
12480.564043	3949.770833	1856.318359	-134.061798
12480.564043	3949.770833	1855.327148	-33.235233
12480.564043	3949.770833	1854.335938	43.398270
12480.564043	3949.770833	1853.344727	192.294556
12480.564043	3949.770833	1852.353516	87.971985
12480.564043	3949.770833	1851.362305	-11.536443
12480.564043	3949.770833	1850.370117	-77.321930
12480.564043	3949.770833	1849.377930	191.758987
12480.564043	3949.770833	1848.385742	140.310623
12480.564043	3949.770833	1847.393555	-0.283410
12480.564043	3949.770833	1846.401367	49.343918
12480.564043	3949.770833	1845.408203	228.896088
12480.564043	3949.770833	1844.415039	215.758072
12480.564043	3949.770833	1843.421875	106.297897
12480.564043	3949.770833	1842.428711	102.682434
12480.564043	3949.770833	1841.435547	106.217239
12480.564043	3949.770833	1840.441406	88.033272
12480.564043	3949.770833	1839.448242	67.379997
12480.564043	3949.770833	1838.454102	46.659035
12480.564043	3949.770833	1837.459961	278.275421
12480.564043	3949.770833	1836.464844	50.673313
12480.564043	3949.770833	1835.470703	185.925140
12480.564043	3949.770833	1834.475586	71.181946
12480.564043	3949.770833	1833.480469	199.003433
12480.564043	3949.770833	1832.485352	197.004883
12480.564043	3949.770833	1831.490234	290.964630
12480.564043	3949.770833	1830.495117	216.750977
12480.564043	3949.770833	1829.499023	53.662094
12480.564043	3949.770833	1828.502930	75.323639
12480.564043	3949.770833	1827.506836	101.680077
12480.564043	3949.770833	1826.510742	262.265747
12480.564043	3949.770833	1825.513672	372.321960
12480.564043	3949.770833	1824.517578	139.327499
12480.564043	3949.770833	1823.520508	-2.579009
12480.564043	3949.770833	1822.523438	227.009033
12480.564043	3949.770833	1821.526367	202.361420
12480.564043	3949.770833	1820.529297	196.785110
12480.564043	3949.770833	1819.531250	121.620529
12480.564043	3949.770833	1818.533203	96.673210
12480.564043	3949.770833	1817.535156	-50.513508
12480.564043	3949.770833	1816.537109	34.493401
12480.564043	3949.770833	1815.539063	282.136749
12480.564043	3949.770833	1814.540039	362.022156
12480.564043	3949.770833	1813.541992	51.702366
12480.564043	3949.770833	1812.542969	26.088293
12480.564043	3949.770833	1811.543945	93.651482
12480.564043	3949.770833	1810.543945	103.662247
12480.564043	3949.770833	1809.544922	-53.836403
12480.564043	3949.770833	1808.544922	53.964085
12480.564043	3949.770833	1807.544922	281.111023
12480.564043	3949.770833	1806.544922	218.870728
12480.564043	3949.770833	1805.544922	161.301514
12480.564043	3949.770833	1804.544922	158.567230
12480.564043	3949.770833	1803.543945	-73.600578
12480.564043	3949.770833	1802.542969	-7.311055
12480.564043	3949.770833	1801.541992	77.917107
12480.564043	3949.770833	1800.541016	60.329891
12480.564043	3949.770833	1799.539063	188.190689
12480.564043	3949.770833	1798.538086	129.743851
12480.564043	3949.770833	1797.536133	85.486877
12480.564043	3949.770833	1796.534180	95.966858
12480.564043	3949.770833	1795.532227	37.138916
12480.564043	3949.770833	1794.529297	40.177052
12480.564043	3949.770833	1793.527344	-52.283207
12480.564043	3949.770833	1792.524414	-28.068825
12480.564043	3949.770833	1791.521484	124.674774
12480.564043	3949.770833	1790.518555	229.560104
12480.564043	3949.770833	1789.514648	-27.838989
12480.564043	3949.770833	1788.511719	129.135086
12480.564043	3949.770833	1787.507813	21.573082
12480.564043	3949.770833	1786.503906	-0.391258
12480.564043	3949.770833	1785.500000	203.635025
12480.564043	3949.770833	1784.496094	93.284149
12480.564043	3949.770833	1783.491211	30.402752
12480.564043	3949.770833	1782.486328	-30.230185
12480.564043	3949.770833	1781.481445	-86.236229
12480.564043	3949.770833	1780.476563	62.140041
12480.564043	3949.770833	1779.471680	-148.719955
12480.564043	3949.770833	1778.465820	-91.042450
12480.564043	3949.770833	1777.460938	61.536854
12480.564043	3949.770833	1776.455078	4.777712
12480.564043	3949.770833	1775.449219	90.434013
12480.564043	3949.770833	1774.442383	83.249771
12480.564043	3949.770833	1773.436523	-16.702377
12480.564043	3949.770833	1772.429688	13.811853
12480.564043	3949.770833	1771.422852	-38.934372
12480.564043	3949.770833	1770.416016	107.560783
12480.564043	3949.770833	1769.409180	-35.680298
12480.564043	3949.770833	1768.402344	205.349152
12480.564043	3949.770833	1767.394531	310.899200
12480.564043	3949.770833	1766.386719	10.674540
12480.564043	3949.770833	1765.378906	-52.461472
12480.564043	3949.770833	1764.371094	111.871117
12480.564043	3949.770833	1763.362305	-8.480477
12480.564043	3949.770833	1762.354492	55.923306
12480.564043	3949.770833	1761.345703	-33.887348
12480.564043	3949.770833	1760.336914	-66.965408
12480.564043	3949.770833	1759.328125	58.508705
12480.564043	3949.770833	1758.318359	-133.572479
12480.564043	3949.770833	1757.308594	176.220062
12480.564043	3949.770833	1756.299805	-84.768005
12480.564043	3949.770833	1755.290039	134.640335
12480.564043	3949.770833	1754.279297	48.530983
12480.564043	3949.770833	1753.269531	-94.472893
12480.564043	3949.770833	1752.258789	119.594971
12480.564043	3949.770833	1751.249023	-35.507801
12480.564043	3949.770833	1750.238281	29.184528
12480.564043	3949.770833	1749.226563	29.851753
12480.564043	3949.770833	1748.215820	32.738777
12480.564043	3949.770833	1747.204102	-356.839813
12480.564043	3949.770833	1746.193359	-70.656090
12480.564043	3949.770833	1745.181641	-306.823700
12480.564043	3949.770833	1744.168945	-30.542591
12480.564043	3949.770833	1743.157227	-146.502792
12480.564043	3949.770833	1742.144531	134.058182
12480.564043	3949.770833	1741.132813	88.622810
12480.564043	3949.770833	1740.120117	-100.924843
12480.564043	3949.770833	1739.106445	-224.497452
12480.564043	3949.770833	1738.093750	-256.148743
12480.564043	3949.770833	1737.080078	-87.461243
12480.564043	3949.770833	1736.067383	196.584229
12480.564043	3949.770833	1735.053711	-85.518196
12480.564043	3949.770833	1734.040039	35.451599
12480.564043	3949.770833	1733.025391	-55.909653
12480.564043	3949.770833	1732.011719	-97.879478
12480.564043	3949.770833	1730.997070	-69.311363
12480.564043	3949.770833	1729.982422	-0.852719
12480.564043	3949.770833	1728.967773	234.651840
12480.564043	3949.770833	1727.952148	74.324890
12480.564043	3949.770833	1726.937500	24.583712
12480.564043	3949.770833	1725.921875	-32.355076
12480.564043	3949.770833	1724.906250	-162.362717
12480.564043	3949.770833	1723.890625	65.180161
12480.564043	3949.770833	1722.875000	47.848045
12480.564043	3949.770833	1721.858398	-11.963642
12480.564043	3949.770833	1720.841797	43.338310
12480.564043	3949.770833	1719.825195	-258.874664
12480.564043	3949.770833	1718.808594	59.460281
12480.564043	3949.770833	1717.791992	-68.987518
12480.564043	3949.770833	1716.774414	86.784286
12480.564043	3949.770833	1715.756836	-44.240715
12480.564043	3949.770833	1714.739258	151.143967
12480.564043	3949.770833	1713.721680	-66.983063
12480.564043	3949.770833	1712.704102	-245.234619
12480.564043	3949.770833	1711.685547	-106.647850
12480.564043	3949.770833	1710.667969	64.641068
12480.564043	3949.770833	1709.649414	19.844358
12480.564043	3949.770833	1708.630859	150.906494
12480.564043	3949.770833	1707.611328	159.808563
12480.564043	3949.770833	1706.592773	112.327370
12480.564043	3949.770833	1705.573242	-101.746483
12480.564043	3949.770833	1704.553711	82.686272
12480.564043	3949.770833	1703.534180	102.867500
12480.564043	3949.770833	1702.513672	120.570831
12480.564043	3949.770833	1701.494141	131.150360
12480.564043	3949.770833	1700.473633	1.052035
12480.564043	3949.770833	1699.453125	133.211639
12480.564043	3949.770833	1698.432617	143.455093
12480.564043	3949.770833	1697.412109	15.465792
12480.564043	3949.770833	1696.390625	79.347008
12480.564043	3949.770833	1695.369141	199.273224
12480.564043	3949.770833	1694.347656	-24.894415
12480.564043	3949.770833	1693.326172	29.315628
12480.564043	3949.770833	1692.304688	-190.239380
12480.564043	3949.770833	1691.282227	55.536701
12480.564043	3949.770833	1690.260742	142.164047
12480.564043	3949.770833	1689.238281	198.264679
12480.564043	3949.770833	1688.214844	67.268959
12480.564043	3949.770833	1687.192383	95.155563
12480.564043	3949.770833	1686.168945	-157.416763
12480.564043	3949.770833	1685.146484	68.884468
12480.564043	3949.770833	1684.123047	56.797829
12480.564043	3949.770833	1683.099609	336.501801
12480.564043	3949.770833	1682.075195	296.186768
12480.564043	3949.770833	1681.051758	104.128120
12480.564043	3949.770833	1680.027344	161.740768
12480.564043	3949.770833	1679.002930	328.919281
12480.564043	3949.770833	1677.978516	465.644196
12480.564043	3949.770833	1676.953125	511.276520
12480.564043	3949.770833	1675.928711	647.787598
12480.564043	3949.770833	1674.903320	411.161194
12480.564043	3949.770833	1673.877930	549.832214
12480.564043	3949.770833	1672.852539	299.219696
12480.564043	3949.770833	1671.826172	628.784119
12480.564043	3949.770833	1670.800781	799.785400
12480.564043	3949.770833	1669.774414	658.558411
12480.564043	3949.770833	1668.748047	782.797119
12480.564043	3949.770833	1667.721680	324.908020
12480.564043	3949.770833	1666.694336	672.511475
12480.564043	3949.770833	1665.667969	768.618774
12480.564043	3949.770833	1664.640625	894.876099
12480.564043	3949.770833	1663.613281	704.665161
12480.564043	3949.770833	1662.585938	888.960632
12480.564043	3949.770833	1661.557617	1189.403442
12480.564043	3949.770833	1660.530273	1061.920166
12480.564043	3949.770833	1659.501953	918.163635
12480.564043	3949.770833	1658.473633	1111.430664
12480.564043	3949.770833	1657.444336	1032.708740
12480.564043	3949.770833	1656.416016	1181.689331
12480.564043	3949.770833	1655.386719	910.152954
12480.564043	3949.770833	1654.358398	1333.090942
12480.564043	3949.770833	1653.328125	1168.378540
12480.564043	3949.770833	1652.298828	1233.555908
12480.564043	3949.770833	1651.269531	1298.694336
12480.564043	3949.770833	1650.239258	1530.852783
12480.564043	3949.770833	1649.208984	1565.708130
12480.564043	3949.770833	1648.178711	1340.748779
12480.564043	3949.770833	1647.148438	1463.745483
12480.564043	3949.770833	1646.117188	1398.856445
12480.564043	3949.770833	1645.086914	1408.198242
12480.564043	3949.770833	1644.055664	1387.385132
12480.564043	3949.770833	1643.024414	1443.058105
12480.564043	3949.770833	1641.992188	1317.976074
12480.564043	3949.770833	1640.960938	1653.947632
12480.564043	3949.770833	1639.928711	1762.810059
12480.564043	3949.770833	1638.896484	1811.438477
12480.564043	3949.770833	1637.864258	1739.676636
12480.564043	3949.770833	1636.832031	1628.610840
12480.564043	3949.770833	1635.798828	1628.668091
12480.564043	3949.770833	1634.766602	1892.538574
12480.564043	3949.770833	1633.733398	1594.171143
12480.564043	3949.770833	1632.699219	1980.534790
12480.564043	3949.770833	1631.666016	1793.316650
12480.564043	3949.770833	1630.632813	1728.734619
12480.564043	3949.770833	1629.598633	1925.392090
12480.564043	3949.770833	1628.564453	1941.742798
12480.564043	3949.770833	1627.530273	2205.360107
12480.564043	3949.770833	1626.495117	2147.777832
12480.564043	3949.770833	1625.460938	2272.748047
12480.564043	3949.770833	1624.425781	2369.979980
12480.564043	3949.770833	1623.390625	2358.702637
12480.564043	3949.770833	1622.355469	2384.411377
12480.564043	3949.770833	1621.319336	2490.915283
12480.564043	3949.770833	1620.284180	2396.697754
12480.564043	3949.770833	1619.248047	2321.005127
12480.564043	3949.770833	1618.211914	2559.092773
12480.564043	3949.770833	1617.174805	2628.776367
12480.564043	3949.770833	1616.138672	2647.788086
12480.564043	3949.770833	1615.101563	2749.819824
12480.564043	3949.770833	1614.065430	2605.281982
12480.564043	3949.770833	1613.027344	2739.651123
12480.564043	3949.770833	1611.990234	2837.193359
12480.564043	3949.770833	1610.953125	2835.718018
12480.564043	3949.770833	1609.915039	2898.777832
12480.564043	3949.770833	1608.876953	2952.675781
12480.564043	3949.770833	1607.838867	2889.220703
12480.564043	3949.770833	1606.800781	2662.449463
12480.564043	3949.770833	1605.761719	3011.127441
12480.564043	3949.770833	1604.723633	2782.280518
12480.564043	3949.770833	1603.684570	2790.515625
12480.564043	3949.770833	1602.644531	2833.311523
12480.564043	3949.770833	1601.605469	2931.383057
12480.564043	3949.770833	1600.566406	2840.989502
12480.564043	3949.770833	1599.526367	2667.957520
12480.564043	3949.770833	1598.486328	2736.380615
12480.564043	3949.770833	1597.446289	2786.488770
12480.564043	3949.770833	1596.405273	2531.134277
12480.564043	3949.770833	1595.365234	2811.128418
12480.564043	3949.770833	1594.324219	2817.841064
12480.564043	3949.770833	1593.283203	2792.508057
12480.564043	3949.770833	1592.242188	2535.457275
12480.564043	3949.770833	1591.200195	2615.947510
12480.564043	3949.770833	1590.159180	2283.526855
12480.564043	3949.770833	1589.117188	2488.127441
12480.564043	3949.770833	1588.075195	2573.493652
12480.564043	3949.770833	1587.032227	2390.623291
12480.564043	3949.770833	1585.990234	2600.006592
12480.564043	3949.770833	1584.947266	2240.932129
12480.564043	3949.770833	1583.904297	2503.187012
