#X		#Y		#Wave		#Intensity
3068.679202	5954.865500	1999.980469	-197.173157
3068.679202	5954.865500	1999.016602	-317.462982
3068.679202	5954.865500	1998.052734	-13.679130
3068.679202	5954.865500	1997.087891	-127.130203
3068.679202	5954.865500	1996.123047	-330.520416
3068.679202	5954.865500	1995.158203	-180.356964
3068.679202	5954.865500	1994.193359	-8.698269
3068.679202	5954.865500	1993.228516	-18.589533
3068.679202	5954.865500	1992.262695	79.777840
3068.679202	5954.865500	1991.297852	23.951349
3068.679202	5954.865500	1990.332031	195.197815
3068.679202	5954.865500	1989.366211	-52.432716
3068.679202	5954.865500	1988.399414	167.010635
3068.679202	5954.865500	1987.433594	192.840668
3068.679202	5954.865500	1986.466797	-76.198097
3068.679202	5954.865500	1985.500977	250.208664
3068.679202	5954.865500	1984.534180	121.089516
3068.679202	5954.865500	1983.567383	364.736053
3068.679202	5954.865500	1982.599609	214.872833
3068.679202	5954.865500	1981.632813	-115.780762
3068.679202	5954.865500	1980.665039	165.872421
3068.679202	5954.865500	1979.697266	-214.943787
3068.679202	5954.865500	1978.729492	-62.649681
3068.679202	5954.865500	1977.761719	210.156326
3068.679202	5954.865500	1976.792969	309.678375
3068.679202	5954.865500	1975.825195	68.197472
3068.679202	5954.865500	1974.856445	73.203957
3068.679202	5954.865500	1973.887695	294.968964
3068.679202	5954.865500	1972.918945	104.390335
3068.679202	5954.865500	1971.949219	369.813324
3068.679202	5954.865500	1970.980469	8.538301
3068.679202	5954.865500	1970.010742	-2.822489
3068.679202	5954.865500	1969.041016	81.675934
3068.679202	5954.865500	1968.071289	0.769642
3068.679202	5954.865500	1967.101563	271.983459
3068.679202	5954.865500	1966.130859	390.125824
3068.679202	5954.865500	1965.161133	357.760162
3068.679202	5954.865500	1964.190430	-22.025814
3068.679202	5954.865500	1963.219727	125.015305
3068.679202	5954.865500	1962.249023	97.037643
3068.679202	5954.865500	1961.277344	-41.859848
3068.679202	5954.865500	1960.306641	262.056641
3068.679202	5954.865500	1959.334961	327.057007
3068.679202	5954.865500	1958.363281	-85.312996
3068.679202	5954.865500	1957.391602	363.103210
3068.679202	5954.865500	1956.419922	376.004852
3068.679202	5954.865500	1955.447266	142.941574
3068.679202	5954.865500	1954.474609	37.671394
3068.679202	5954.865500	1953.501953	195.293198
3068.679202	5954.865500	1952.529297	143.919235
3068.679202	5954.865500	1951.556641	94.938858
3068.679202	5954.865500	1950.583984	166.254791
3068.679202	5954.865500	1949.610352	151.525864
3068.679202	5954.865500	1948.636719	190.759201
3068.679202	5954.865500	1947.663086	99.827492
3068.679202	5954.865500	1946.689453	35.882492
3068.679202	5954.865500	1945.715820	99.524933
3068.679202	5954.865500	1944.741211	106.683723
3068.679202	5954.865500	1943.767578	-6.373548
3068.679202	5954.865500	1942.792969	-212.602905
3068.679202	5954.865500	1941.818359	93.706482
3068.679202	5954.865500	1940.842773	-16.872898
3068.679202	5954.865500	1939.868164	17.208944
3068.679202	5954.865500	1938.892578	-139.870178
3068.679202	5954.865500	1937.916992	-304.228424
3068.679202	5954.865500	1936.941406	70.432144
3068.679202	5954.865500	1935.965820	165.754944
3068.679202	5954.865500	1934.990234	148.424210
3068.679202	5954.865500	1934.013672	128.677109
3068.679202	5954.865500	1933.037109	79.595543
3068.679202	5954.865500	1932.060547	233.710815
3068.679202	5954.865500	1931.083984	-55.098312
3068.679202	5954.865500	1930.107422	35.462715
3068.679202	5954.865500	1929.129883	130.925262
3068.679202	5954.865500	1928.153320	-59.730217
3068.679202	5954.865500	1927.175781	216.768219
3068.679202	5954.865500	1926.198242	-259.755005
3068.679202	5954.865500	1925.219727	-181.194763
3068.679202	5954.865500	1924.242188	39.145012
3068.679202	5954.865500	1923.263672	83.543861
3068.679202	5954.865500	1922.285156	389.383881
3068.679202	5954.865500	1921.306641	104.106537
3068.679202	5954.865500	1920.328125	204.844467
3068.679202	5954.865500	1919.349609	102.968475
3068.679202	5954.865500	1918.370117	1.204110
3068.679202	5954.865500	1917.391602	24.028513
3068.679202	5954.865500	1916.412109	-58.007378
3068.679202	5954.865500	1915.431641	-313.158142
3068.679202	5954.865500	1914.452148	5.097374
3068.679202	5954.865500	1913.472656	-81.529541
3068.679202	5954.865500	1912.492188	95.297592
3068.679202	5954.865500	1911.511719	306.270905
3068.679202	5954.865500	1910.531250	119.945389
3068.679202	5954.865500	1909.550781	-161.270508
3068.679202	5954.865500	1908.569336	-223.013168
3068.679202	5954.865500	1907.588867	129.484482
3068.679202	5954.865500	1906.607422	-90.439209
3068.679202	5954.865500	1905.625977	-132.433273
3068.679202	5954.865500	1904.644531	-145.111389
3068.679202	5954.865500	1903.662109	-296.457794
3068.679202	5954.865500	1902.680664	-279.732208
3068.679202	5954.865500	1901.698242	-131.535553
3068.679202	5954.865500	1900.715820	96.970467
3068.679202	5954.865500	1899.733398	43.308319
3068.679202	5954.865500	1898.750000	-214.543503
3068.679202	5954.865500	1897.767578	-260.680054
3068.679202	5954.865500	1896.784180	-175.448090
3068.679202	5954.865500	1895.800781	-92.603951
3068.679202	5954.865500	1894.817383	-226.002670
3068.679202	5954.865500	1893.833984	-36.132164
3068.679202	5954.865500	1892.850586	-43.031212
3068.679202	5954.865500	1891.866211	-166.442184
3068.679202	5954.865500	1890.881836	-185.325439
3068.679202	5954.865500	1889.897461	-228.415329
3068.679202	5954.865500	1888.913086	-38.393574
3068.679202	5954.865500	1887.927734	-246.408890
3068.679202	5954.865500	1886.943359	-78.178017
3068.679202	5954.865500	1885.958008	-414.576447
3068.679202	5954.865500	1884.972656	-112.860336
3068.679202	5954.865500	1883.987305	-364.143402
3068.679202	5954.865500	1883.001953	100.005440
3068.679202	5954.865500	1882.015625	-20.220871
3068.679202	5954.865500	1881.029297	-113.696144
3068.679202	5954.865500	1880.042969	6.158942
3068.679202	5954.865500	1879.056641	-70.250160
3068.679202	5954.865500	1878.070313	-354.924316
3068.679202	5954.865500	1877.083984	36.274189
3068.679202	5954.865500	1876.096680	98.026451
3068.679202	5954.865500	1875.109375	-67.799797
3068.679202	5954.865500	1874.122070	56.934982
3068.679202	5954.865500	1873.134766	-48.274277
3068.679202	5954.865500	1872.146484	132.099045
3068.679202	5954.865500	1871.159180	82.587921
3068.679202	5954.865500	1870.170898	-58.807980
3068.679202	5954.865500	1869.182617	-79.225250
3068.679202	5954.865500	1868.194336	144.574951
3068.679202	5954.865500	1867.205078	-388.369232
3068.679202	5954.865500	1866.216797	-46.163807
3068.679202	5954.865500	1865.227539	220.993469
3068.679202	5954.865500	1864.238281	-33.835022
3068.679202	5954.865500	1863.249023	88.257347
3068.679202	5954.865500	1862.259766	376.933014
3068.679202	5954.865500	1861.269531	-68.596321
3068.679202	5954.865500	1860.279297	-21.469570
3068.679202	5954.865500	1859.290039	228.369781
3068.679202	5954.865500	1858.298828	145.040283
3068.679202	5954.865500	1857.308594	-51.701229
3068.679202	5954.865500	1856.318359	272.682922
3068.679202	5954.865500	1855.327148	-184.590103
3068.679202	5954.865500	1854.335938	158.899429
3068.679202	5954.865500	1853.344727	34.456299
3068.679202	5954.865500	1852.353516	143.836441
3068.679202	5954.865500	1851.362305	31.379751
3068.679202	5954.865500	1850.370117	374.344055
3068.679202	5954.865500	1849.377930	201.524246
3068.679202	5954.865500	1848.385742	84.101959
3068.679202	5954.865500	1847.393555	94.293991
3068.679202	5954.865500	1846.401367	142.930420
3068.679202	5954.865500	1845.408203	198.686615
3068.679202	5954.865500	1844.415039	379.504211
3068.679202	5954.865500	1843.421875	66.812828
3068.679202	5954.865500	1842.428711	180.030441
3068.679202	5954.865500	1841.435547	192.067139
3068.679202	5954.865500	1840.441406	276.152496
3068.679202	5954.865500	1839.448242	280.743195
3068.679202	5954.865500	1838.454102	362.159607
3068.679202	5954.865500	1837.459961	263.142792
3068.679202	5954.865500	1836.464844	96.746056
3068.679202	5954.865500	1835.470703	317.165283
3068.679202	5954.865500	1834.475586	285.112488
3068.679202	5954.865500	1833.480469	144.848740
3068.679202	5954.865500	1832.485352	395.961914
3068.679202	5954.865500	1831.490234	51.360168
3068.679202	5954.865500	1830.495117	98.057213
3068.679202	5954.865500	1829.499023	317.404297
3068.679202	5954.865500	1828.502930	262.942474
3068.679202	5954.865500	1827.506836	309.119019
3068.679202	5954.865500	1826.510742	268.758209
3068.679202	5954.865500	1825.513672	379.349426
3068.679202	5954.865500	1824.517578	506.521332
3068.679202	5954.865500	1823.520508	559.147034
3068.679202	5954.865500	1822.523438	376.667023
3068.679202	5954.865500	1821.526367	563.155579
3068.679202	5954.865500	1820.529297	516.962524
3068.679202	5954.865500	1819.531250	477.785278
3068.679202	5954.865500	1818.533203	469.568909
3068.679202	5954.865500	1817.535156	530.612488
3068.679202	5954.865500	1816.537109	268.197449
3068.679202	5954.865500	1815.539063	391.097534
3068.679202	5954.865500	1814.540039	717.187012
3068.679202	5954.865500	1813.541992	482.983551
3068.679202	5954.865500	1812.542969	574.040039
3068.679202	5954.865500	1811.543945	530.885071
3068.679202	5954.865500	1810.543945	688.421631
3068.679202	5954.865500	1809.544922	826.547913
3068.679202	5954.865500	1808.544922	799.428589
3068.679202	5954.865500	1807.544922	499.595184
3068.679202	5954.865500	1806.544922	534.218079
3068.679202	5954.865500	1805.544922	475.401398
3068.679202	5954.865500	1804.544922	292.141724
3068.679202	5954.865500	1803.543945	672.381592
3068.679202	5954.865500	1802.542969	491.040588
3068.679202	5954.865500	1801.541992	622.289246
3068.679202	5954.865500	1800.541016	373.677063
3068.679202	5954.865500	1799.539063	222.747330
3068.679202	5954.865500	1798.538086	527.388184
3068.679202	5954.865500	1797.536133	340.171478
3068.679202	5954.865500	1796.534180	608.352478
3068.679202	5954.865500	1795.532227	356.258179
3068.679202	5954.865500	1794.529297	552.243225
3068.679202	5954.865500	1793.527344	528.561829
3068.679202	5954.865500	1792.524414	623.773682
3068.679202	5954.865500	1791.521484	566.147156
3068.679202	5954.865500	1790.518555	455.837677
3068.679202	5954.865500	1789.514648	385.765137
3068.679202	5954.865500	1788.511719	60.592819
3068.679202	5954.865500	1787.507813	321.026398
3068.679202	5954.865500	1786.503906	233.462769
3068.679202	5954.865500	1785.500000	169.432541
3068.679202	5954.865500	1784.496094	162.239761
3068.679202	5954.865500	1783.491211	207.076279
3068.679202	5954.865500	1782.486328	313.439941
3068.679202	5954.865500	1781.481445	635.898621
3068.679202	5954.865500	1780.476563	99.422531
3068.679202	5954.865500	1779.471680	368.855072
3068.679202	5954.865500	1778.465820	252.744217
3068.679202	5954.865500	1777.460938	162.510254
3068.679202	5954.865500	1776.455078	487.823486
3068.679202	5954.865500	1775.449219	156.951767
3068.679202	5954.865500	1774.442383	338.943970
3068.679202	5954.865500	1773.436523	302.053192
3068.679202	5954.865500	1772.429688	36.873154
3068.679202	5954.865500	1771.422852	-55.238934
3068.679202	5954.865500	1770.416016	317.568512
3068.679202	5954.865500	1769.409180	46.772144
3068.679202	5954.865500	1768.402344	-105.631828
3068.679202	5954.865500	1767.394531	194.755096
3068.679202	5954.865500	1766.386719	141.284180
3068.679202	5954.865500	1765.378906	56.654881
3068.679202	5954.865500	1764.371094	87.879272
3068.679202	5954.865500	1763.362305	109.235580
3068.679202	5954.865500	1762.354492	206.090057
3068.679202	5954.865500	1761.345703	378.354034
3068.679202	5954.865500	1760.336914	119.019691
3068.679202	5954.865500	1759.328125	302.357178
3068.679202	5954.865500	1758.318359	144.223343
3068.679202	5954.865500	1757.308594	286.488525
3068.679202	5954.865500	1756.299805	153.751022
3068.679202	5954.865500	1755.290039	122.447693
3068.679202	5954.865500	1754.279297	-103.277138
3068.679202	5954.865500	1753.269531	-76.107231
3068.679202	5954.865500	1752.258789	42.911850
3068.679202	5954.865500	1751.249023	182.820496
3068.679202	5954.865500	1750.238281	149.665634
3068.679202	5954.865500	1749.226563	132.673859
3068.679202	5954.865500	1748.215820	96.426880
3068.679202	5954.865500	1747.204102	-188.344788
3068.679202	5954.865500	1746.193359	318.168671
3068.679202	5954.865500	1745.181641	297.288208
3068.679202	5954.865500	1744.168945	-111.339378
3068.679202	5954.865500	1743.157227	249.660522
3068.679202	5954.865500	1742.144531	64.731911
3068.679202	5954.865500	1741.132813	-247.952225
3068.679202	5954.865500	1740.120117	-6.306587
3068.679202	5954.865500	1739.106445	-34.162647
3068.679202	5954.865500	1738.093750	-409.161530
3068.679202	5954.865500	1737.080078	-93.323433
3068.679202	5954.865500	1736.067383	-68.028183
3068.679202	5954.865500	1735.053711	48.796429
3068.679202	5954.865500	1734.040039	42.610130
3068.679202	5954.865500	1733.025391	-51.194759
3068.679202	5954.865500	1732.011719	163.378082
3068.679202	5954.865500	1730.997070	-60.767803
3068.679202	5954.865500	1729.982422	-96.766762
3068.679202	5954.865500	1728.967773	-227.345123
3068.679202	5954.865500	1727.952148	-214.655060
3068.679202	5954.865500	1726.937500	26.036032
3068.679202	5954.865500	1725.921875	115.575623
3068.679202	5954.865500	1724.906250	251.761124
3068.679202	5954.865500	1723.890625	142.811783
3068.679202	5954.865500	1722.875000	-208.781631
3068.679202	5954.865500	1721.858398	217.844482
3068.679202	5954.865500	1720.841797	-7.450297
3068.679202	5954.865500	1719.825195	65.543724
3068.679202	5954.865500	1718.808594	-235.621918
3068.679202	5954.865500	1717.791992	-266.786285
3068.679202	5954.865500	1716.774414	157.488907
3068.679202	5954.865500	1715.756836	-62.479645
3068.679202	5954.865500	1714.739258	-24.376535
3068.679202	5954.865500	1713.721680	22.725033
3068.679202	5954.865500	1712.704102	48.298779
3068.679202	5954.865500	1711.685547	38.232632
3068.679202	5954.865500	1710.667969	-244.423965
3068.679202	5954.865500	1709.649414	-224.677765
3068.679202	5954.865500	1708.630859	-273.355713
3068.679202	5954.865500	1707.611328	-228.598419
3068.679202	5954.865500	1706.592773	-125.566353
3068.679202	5954.865500	1705.573242	-74.569595
3068.679202	5954.865500	1704.553711	-26.308531
3068.679202	5954.865500	1703.534180	-353.455475
3068.679202	5954.865500	1702.513672	-305.939575
3068.679202	5954.865500	1701.494141	-83.046570
3068.679202	5954.865500	1700.473633	-76.158043
3068.679202	5954.865500	1699.453125	122.412331
3068.679202	5954.865500	1698.432617	-253.155960
3068.679202	5954.865500	1697.412109	-207.529083
3068.679202	5954.865500	1696.390625	97.496887
3068.679202	5954.865500	1695.369141	-96.431221
3068.679202	5954.865500	1694.347656	186.680725
3068.679202	5954.865500	1693.326172	45.903069
3068.679202	5954.865500	1692.304688	157.429260
3068.679202	5954.865500	1691.282227	83.776314
3068.679202	5954.865500	1690.260742	98.691566
3068.679202	5954.865500	1689.238281	47.757519
3068.679202	5954.865500	1688.214844	29.170755
3068.679202	5954.865500	1687.192383	-57.473640
3068.679202	5954.865500	1686.168945	37.756645
3068.679202	5954.865500	1685.146484	251.778320
3068.679202	5954.865500	1684.123047	236.471802
3068.679202	5954.865500	1683.099609	398.287048
3068.679202	5954.865500	1682.075195	300.537598
3068.679202	5954.865500	1681.051758	524.630981
3068.679202	5954.865500	1680.027344	500.908295
3068.679202	5954.865500	1679.002930	537.527893
3068.679202	5954.865500	1677.978516	620.461304
3068.679202	5954.865500	1676.953125	614.370239
3068.679202	5954.865500	1675.928711	603.347107
3068.679202	5954.865500	1674.903320	710.857178
3068.679202	5954.865500	1673.877930	582.599670
3068.679202	5954.865500	1672.852539	670.803955
3068.679202	5954.865500	1671.826172	784.245972
3068.679202	5954.865500	1670.800781	743.640137
3068.679202	5954.865500	1669.774414	996.158203
3068.679202	5954.865500	1668.748047	1085.274292
3068.679202	5954.865500	1667.721680	729.384155
3068.679202	5954.865500	1666.694336	1260.137451
3068.679202	5954.865500	1665.667969	1504.190918
3068.679202	5954.865500	1664.640625	1289.434692
3068.679202	5954.865500	1663.613281	1267.559204
3068.679202	5954.865500	1662.585938	1257.040283
3068.679202	5954.865500	1661.557617	1434.554077
3068.679202	5954.865500	1660.530273	1739.646729
3068.679202	5954.865500	1659.501953	1860.658936
3068.679202	5954.865500	1658.473633	1793.099365
3068.679202	5954.865500	1657.444336	2310.806885
3068.679202	5954.865500	1656.416016	2419.218750
3068.679202	5954.865500	1655.386719	2506.369141
3068.679202	5954.865500	1654.358398	2407.496826
3068.679202	5954.865500	1653.328125	2373.313965
3068.679202	5954.865500	1652.298828	2362.160400
3068.679202	5954.865500	1651.269531	2798.707031
3068.679202	5954.865500	1650.239258	2837.981201
3068.679202	5954.865500	1649.208984	2835.237793
3068.679202	5954.865500	1648.178711	3010.866943
3068.679202	5954.865500	1647.148438	3510.876709
3068.679202	5954.865500	1646.117188	3157.123535
3068.679202	5954.865500	1645.086914	3459.403076
3068.679202	5954.865500	1644.055664	3946.710205
3068.679202	5954.865500	1643.024414	4116.131348
3068.679202	5954.865500	1641.992188	4187.905273
3068.679202	5954.865500	1640.960938	3997.735352
3068.679202	5954.865500	1639.928711	4462.806641
3068.679202	5954.865500	1638.896484	5052.532715
3068.679202	5954.865500	1637.864258	4919.514648
3068.679202	5954.865500	1636.832031	4920.600586
3068.679202	5954.865500	1635.798828	5409.735352
3068.679202	5954.865500	1634.766602	5734.271484
3068.679202	5954.865500	1633.733398	5734.575195
3068.679202	5954.865500	1632.699219	5998.306152
3068.679202	5954.865500	1631.666016	6462.994141
3068.679202	5954.865500	1630.632813	6478.807617
3068.679202	5954.865500	1629.598633	6829.560547
3068.679202	5954.865500	1628.564453	6988.189941
3068.679202	5954.865500	1627.530273	7442.355957
3068.679202	5954.865500	1626.495117	7572.703613
3068.679202	5954.865500	1625.460938	7841.494629
3068.679202	5954.865500	1624.425781	7971.412598
3068.679202	5954.865500	1623.390625	8357.416016
3068.679202	5954.865500	1622.355469	8249.135742
3068.679202	5954.865500	1621.319336	8473.042969
3068.679202	5954.865500	1620.284180	8888.309570
3068.679202	5954.865500	1619.248047	9305.537109
3068.679202	5954.865500	1618.211914	9212.721680
3068.679202	5954.865500	1617.174805	8852.250000
3068.679202	5954.865500	1616.138672	9238.909180
3068.679202	5954.865500	1615.101563	9526.117188
3068.679202	5954.865500	1614.065430	9589.604492
3068.679202	5954.865500	1613.027344	9735.800781
3068.679202	5954.865500	1611.990234	10559.246094
3068.679202	5954.865500	1610.953125	10543.820313
3068.679202	5954.865500	1609.915039	10426.924805
3068.679202	5954.865500	1608.876953	10791.218750
3068.679202	5954.865500	1607.838867	10611.993164
3068.679202	5954.865500	1606.800781	11061.113281
3068.679202	5954.865500	1605.761719	11381.059570
3068.679202	5954.865500	1604.723633	11606.541016
3068.679202	5954.865500	1603.684570	11459.162109
3068.679202	5954.865500	1602.644531	11723.398438
3068.679202	5954.865500	1601.605469	12049.622070
3068.679202	5954.865500	1600.566406	12274.510742
3068.679202	5954.865500	1599.526367	12014.224609
3068.679202	5954.865500	1598.486328	11558.659180
3068.679202	5954.865500	1597.446289	12132.570313
3068.679202	5954.865500	1596.405273	12219.164063
3068.679202	5954.865500	1595.365234	11717.802734
3068.679202	5954.865500	1594.324219	11751.579102
3068.679202	5954.865500	1593.283203	11537.379883
3068.679202	5954.865500	1592.242188	11520.652344
3068.679202	5954.865500	1591.200195	11575.000977
3068.679202	5954.865500	1590.159180	11652.332031
3068.679202	5954.865500	1589.117188	11238.650391
3068.679202	5954.865500	1588.075195	11166.880859
3068.679202	5954.865500	1587.032227	11136.366211
3068.679202	5954.865500	1585.990234	11142.617188
3068.679202	5954.865500	1584.947266	10720.175781
3068.679202	5954.865500	1583.904297	10836.496094
3068.679202	5954.865500	1582.861328	10833.645508
3068.679202	5954.865500	1581.818359	10228.329102
3068.679202	5954.865500	1580.775391	10344.775391
3068.679202	5954.865500	1579.731445	10119.947266
3068.679202	5954.865500	1578.687500	10197.474609
3068.679202	5954.865500	1577.643555	10050.689453
