#X		#Y		#Wave		#Intensity
12475.020798	3950.995000	1999.980469	-91.280838
12475.020798	3950.995000	1999.016602	-95.793922
12475.020798	3950.995000	1998.052734	89.218559
12475.020798	3950.995000	1997.087891	56.383118
12475.020798	3950.995000	1996.123047	43.674671
12475.020798	3950.995000	1995.158203	13.913949
12475.020798	3950.995000	1994.193359	-32.897438
12475.020798	3950.995000	1993.228516	145.916153
12475.020798	3950.995000	1992.262695	-73.692123
12475.020798	3950.995000	1991.297852	85.766602
12475.020798	3950.995000	1990.332031	27.610332
12475.020798	3950.995000	1989.366211	197.359268
12475.020798	3950.995000	1988.399414	38.224121
12475.020798	3950.995000	1987.433594	173.721863
12475.020798	3950.995000	1986.466797	131.313736
12475.020798	3950.995000	1985.500977	-36.976013
12475.020798	3950.995000	1984.534180	108.953728
12475.020798	3950.995000	1983.567383	-56.416218
12475.020798	3950.995000	1982.599609	-60.914894
12475.020798	3950.995000	1981.632813	-127.003296
12475.020798	3950.995000	1980.665039	17.077105
12475.020798	3950.995000	1979.697266	94.580437
12475.020798	3950.995000	1978.729492	6.761155
12475.020798	3950.995000	1977.761719	185.772293
12475.020798	3950.995000	1976.792969	-160.930099
12475.020798	3950.995000	1975.825195	154.070877
12475.020798	3950.995000	1974.856445	-2.221305
12475.020798	3950.995000	1973.887695	-84.313316
12475.020798	3950.995000	1972.918945	-8.386360
12475.020798	3950.995000	1971.949219	-129.668594
12475.020798	3950.995000	1970.980469	72.221092
12475.020798	3950.995000	1970.010742	104.037140
12475.020798	3950.995000	1969.041016	5.308041
12475.020798	3950.995000	1968.071289	98.933319
12475.020798	3950.995000	1967.101563	-78.411987
12475.020798	3950.995000	1966.130859	42.473057
12475.020798	3950.995000	1965.161133	163.398773
12475.020798	3950.995000	1964.190430	104.594131
12475.020798	3950.995000	1963.219727	-57.519653
12475.020798	3950.995000	1962.249023	-66.881241
12475.020798	3950.995000	1961.277344	91.187820
12475.020798	3950.995000	1960.306641	172.980042
12475.020798	3950.995000	1959.334961	-47.807529
12475.020798	3950.995000	1958.363281	139.868530
12475.020798	3950.995000	1957.391602	10.274205
12475.020798	3950.995000	1956.419922	16.016367
12475.020798	3950.995000	1955.447266	-78.992210
12475.020798	3950.995000	1954.474609	-36.276314
12475.020798	3950.995000	1953.501953	117.052467
12475.020798	3950.995000	1952.529297	46.769356
12475.020798	3950.995000	1951.556641	84.635986
12475.020798	3950.995000	1950.583984	-59.233360
12475.020798	3950.995000	1949.610352	-158.818756
12475.020798	3950.995000	1948.636719	92.755699
12475.020798	3950.995000	1947.663086	-6.771488
12475.020798	3950.995000	1946.689453	43.471111
12475.020798	3950.995000	1945.715820	-144.311020
12475.020798	3950.995000	1944.741211	217.553909
12475.020798	3950.995000	1943.767578	103.425972
12475.020798	3950.995000	1942.792969	13.876958
12475.020798	3950.995000	1941.818359	-9.424899
12475.020798	3950.995000	1940.842773	160.962036
12475.020798	3950.995000	1939.868164	169.516205
12475.020798	3950.995000	1938.892578	40.833134
12475.020798	3950.995000	1937.916992	20.007067
12475.020798	3950.995000	1936.941406	1.636665
12475.020798	3950.995000	1935.965820	24.907558
12475.020798	3950.995000	1934.990234	40.817940
12475.020798	3950.995000	1934.013672	-87.737991
12475.020798	3950.995000	1933.037109	158.275696
12475.020798	3950.995000	1932.060547	105.598564
12475.020798	3950.995000	1931.083984	48.033699
12475.020798	3950.995000	1930.107422	19.835423
12475.020798	3950.995000	1929.129883	82.138359
12475.020798	3950.995000	1928.153320	124.836769
12475.020798	3950.995000	1927.175781	-25.668634
12475.020798	3950.995000	1926.198242	31.665321
12475.020798	3950.995000	1925.219727	88.956772
12475.020798	3950.995000	1924.242188	109.547562
12475.020798	3950.995000	1923.263672	81.239777
12475.020798	3950.995000	1922.285156	16.276062
12475.020798	3950.995000	1921.306641	-12.053725
12475.020798	3950.995000	1920.328125	93.910431
12475.020798	3950.995000	1919.349609	141.210419
12475.020798	3950.995000	1918.370117	124.995705
12475.020798	3950.995000	1917.391602	296.684906
12475.020798	3950.995000	1916.412109	97.373978
12475.020798	3950.995000	1915.431641	10.332359
12475.020798	3950.995000	1914.452148	-32.803272
12475.020798	3950.995000	1913.472656	-24.741741
12475.020798	3950.995000	1912.492188	-82.553314
12475.020798	3950.995000	1911.511719	-67.242737
12475.020798	3950.995000	1910.531250	99.148178
12475.020798	3950.995000	1909.550781	104.598129
12475.020798	3950.995000	1908.569336	-19.128227
12475.020798	3950.995000	1907.588867	13.061540
12475.020798	3950.995000	1906.607422	-27.867928
12475.020798	3950.995000	1905.625977	52.934456
12475.020798	3950.995000	1904.644531	-65.979248
12475.020798	3950.995000	1903.662109	51.231705
12475.020798	3950.995000	1902.680664	114.813553
12475.020798	3950.995000	1901.698242	-13.906083
12475.020798	3950.995000	1900.715820	78.771843
12475.020798	3950.995000	1899.733398	98.398499
12475.020798	3950.995000	1898.750000	74.196342
12475.020798	3950.995000	1897.767578	-146.995102
12475.020798	3950.995000	1896.784180	-27.800724
12475.020798	3950.995000	1895.800781	-76.408875
12475.020798	3950.995000	1894.817383	3.752195
12475.020798	3950.995000	1893.833984	-35.220348
12475.020798	3950.995000	1892.850586	-154.391434
12475.020798	3950.995000	1891.866211	-16.114052
12475.020798	3950.995000	1890.881836	-164.482529
12475.020798	3950.995000	1889.897461	-43.349861
12475.020798	3950.995000	1888.913086	-24.263357
12475.020798	3950.995000	1887.927734	-267.350586
12475.020798	3950.995000	1886.943359	-8.105788
12475.020798	3950.995000	1885.958008	3.530743
12475.020798	3950.995000	1884.972656	-159.533020
12475.020798	3950.995000	1883.987305	33.909550
12475.020798	3950.995000	1883.001953	-92.833351
12475.020798	3950.995000	1882.015625	66.478622
12475.020798	3950.995000	1881.029297	-60.331303
12475.020798	3950.995000	1880.042969	-194.417816
12475.020798	3950.995000	1879.056641	30.079067
12475.020798	3950.995000	1878.070313	-130.729706
12475.020798	3950.995000	1877.083984	11.214071
12475.020798	3950.995000	1876.096680	22.284256
12475.020798	3950.995000	1875.109375	-87.759079
12475.020798	3950.995000	1874.122070	-47.738560
12475.020798	3950.995000	1873.134766	-92.496361
12475.020798	3950.995000	1872.146484	-33.248688
12475.020798	3950.995000	1871.159180	-119.235161
12475.020798	3950.995000	1870.170898	-74.633987
12475.020798	3950.995000	1869.182617	-163.116409
12475.020798	3950.995000	1868.194336	-63.029469
12475.020798	3950.995000	1867.205078	-71.825989
12475.020798	3950.995000	1866.216797	71.593842
12475.020798	3950.995000	1865.227539	86.820778
12475.020798	3950.995000	1864.238281	82.652603
12475.020798	3950.995000	1863.249023	-54.435463
12475.020798	3950.995000	1862.259766	-12.809022
12475.020798	3950.995000	1861.269531	-12.313848
12475.020798	3950.995000	1860.279297	-38.437073
12475.020798	3950.995000	1859.290039	70.561951
12475.020798	3950.995000	1858.298828	41.890419
12475.020798	3950.995000	1857.308594	184.485870
12475.020798	3950.995000	1856.318359	261.827606
12475.020798	3950.995000	1855.327148	336.660278
12475.020798	3950.995000	1854.335938	100.310570
12475.020798	3950.995000	1853.344727	225.648193
12475.020798	3950.995000	1852.353516	102.577065
12475.020798	3950.995000	1851.362305	18.048893
12475.020798	3950.995000	1850.370117	-47.239826
12475.020798	3950.995000	1849.377930	34.395294
12475.020798	3950.995000	1848.385742	255.645248
12475.020798	3950.995000	1847.393555	98.627762
12475.020798	3950.995000	1846.401367	170.353149
12475.020798	3950.995000	1845.408203	232.349564
12475.020798	3950.995000	1844.415039	202.787064
12475.020798	3950.995000	1843.421875	-16.954939
12475.020798	3950.995000	1842.428711	138.669998
12475.020798	3950.995000	1841.435547	-20.976290
12475.020798	3950.995000	1840.441406	50.261921
12475.020798	3950.995000	1839.448242	176.714294
12475.020798	3950.995000	1838.454102	141.954391
12475.020798	3950.995000	1837.459961	181.653656
12475.020798	3950.995000	1836.464844	33.794651
12475.020798	3950.995000	1835.470703	176.678299
12475.020798	3950.995000	1834.475586	-16.921286
12475.020798	3950.995000	1833.480469	159.392242
12475.020798	3950.995000	1832.485352	-48.691219
12475.020798	3950.995000	1831.490234	175.431351
12475.020798	3950.995000	1830.495117	149.721329
12475.020798	3950.995000	1829.499023	-108.884171
12475.020798	3950.995000	1828.502930	136.484146
12475.020798	3950.995000	1827.506836	36.177326
12475.020798	3950.995000	1826.510742	142.132309
12475.020798	3950.995000	1825.513672	70.479240
12475.020798	3950.995000	1824.517578	169.033264
12475.020798	3950.995000	1823.520508	34.903751
12475.020798	3950.995000	1822.523438	-22.551294
12475.020798	3950.995000	1821.526367	44.558186
12475.020798	3950.995000	1820.529297	101.972824
12475.020798	3950.995000	1819.531250	65.844711
12475.020798	3950.995000	1818.533203	106.293877
12475.020798	3950.995000	1817.535156	295.121490
12475.020798	3950.995000	1816.537109	57.594505
12475.020798	3950.995000	1815.539063	95.371536
12475.020798	3950.995000	1814.540039	39.696022
12475.020798	3950.995000	1813.541992	91.644592
12475.020798	3950.995000	1812.542969	74.095276
12475.020798	3950.995000	1811.543945	-96.631157
12475.020798	3950.995000	1810.543945	187.023819
12475.020798	3950.995000	1809.544922	236.149185
12475.020798	3950.995000	1808.544922	65.211174
12475.020798	3950.995000	1807.544922	161.958588
12475.020798	3950.995000	1806.544922	81.727692
12475.020798	3950.995000	1805.544922	8.601846
12475.020798	3950.995000	1804.544922	128.914383
12475.020798	3950.995000	1803.543945	105.770058
12475.020798	3950.995000	1802.542969	22.838028
12475.020798	3950.995000	1801.541992	97.421349
12475.020798	3950.995000	1800.541016	124.136536
12475.020798	3950.995000	1799.539063	31.403425
12475.020798	3950.995000	1798.538086	38.835373
12475.020798	3950.995000	1797.536133	-80.287971
12475.020798	3950.995000	1796.534180	15.212833
12475.020798	3950.995000	1795.532227	-44.440228
12475.020798	3950.995000	1794.529297	22.194639
12475.020798	3950.995000	1793.527344	-97.239944
12475.020798	3950.995000	1792.524414	114.569862
12475.020798	3950.995000	1791.521484	180.827393
12475.020798	3950.995000	1790.518555	118.294685
12475.020798	3950.995000	1789.514648	150.958923
12475.020798	3950.995000	1788.511719	52.518379
12475.020798	3950.995000	1787.507813	120.688255
12475.020798	3950.995000	1786.503906	143.489761
12475.020798	3950.995000	1785.500000	111.425148
12475.020798	3950.995000	1784.496094	141.142166
12475.020798	3950.995000	1783.491211	249.251419
12475.020798	3950.995000	1782.486328	176.404404
12475.020798	3950.995000	1781.481445	34.494968
12475.020798	3950.995000	1780.476563	-100.337914
12475.020798	3950.995000	1779.471680	126.170692
12475.020798	3950.995000	1778.465820	60.075203
12475.020798	3950.995000	1777.460938	-113.054688
12475.020798	3950.995000	1776.455078	8.417767
12475.020798	3950.995000	1775.449219	98.842064
12475.020798	3950.995000	1774.442383	37.079823
12475.020798	3950.995000	1773.436523	-110.264236
12475.020798	3950.995000	1772.429688	-55.849136
12475.020798	3950.995000	1771.422852	121.877205
12475.020798	3950.995000	1770.416016	216.340897
12475.020798	3950.995000	1769.409180	135.035385
12475.020798	3950.995000	1768.402344	41.775478
12475.020798	3950.995000	1767.394531	116.847778
12475.020798	3950.995000	1766.386719	-26.435291
12475.020798	3950.995000	1765.378906	24.661959
12475.020798	3950.995000	1764.371094	-50.040810
12475.020798	3950.995000	1763.362305	-169.890228
12475.020798	3950.995000	1762.354492	20.660395
12475.020798	3950.995000	1761.345703	87.784546
12475.020798	3950.995000	1760.336914	-98.735893
12475.020798	3950.995000	1759.328125	-185.831238
12475.020798	3950.995000	1758.318359	15.885695
12475.020798	3950.995000	1757.308594	162.938370
12475.020798	3950.995000	1756.299805	84.924950
12475.020798	3950.995000	1755.290039	2.065364
12475.020798	3950.995000	1754.279297	63.442638
12475.020798	3950.995000	1753.269531	-171.064240
12475.020798	3950.995000	1752.258789	48.545170
12475.020798	3950.995000	1751.249023	116.587875
12475.020798	3950.995000	1750.238281	11.844110
12475.020798	3950.995000	1749.226563	-64.638229
12475.020798	3950.995000	1748.215820	142.427368
12475.020798	3950.995000	1747.204102	-106.836815
12475.020798	3950.995000	1746.193359	47.904110
12475.020798	3950.995000	1745.181641	48.884239
12475.020798	3950.995000	1744.168945	11.923962
12475.020798	3950.995000	1743.157227	-29.871536
12475.020798	3950.995000	1742.144531	-45.833336
12475.020798	3950.995000	1741.132813	15.983151
12475.020798	3950.995000	1740.120117	-125.344482
12475.020798	3950.995000	1739.106445	51.774696
12475.020798	3950.995000	1738.093750	-262.007874
12475.020798	3950.995000	1737.080078	11.494030
12475.020798	3950.995000	1736.067383	-87.842995
12475.020798	3950.995000	1735.053711	-83.556870
12475.020798	3950.995000	1734.040039	54.955116
12475.020798	3950.995000	1733.025391	-160.283203
12475.020798	3950.995000	1732.011719	72.159569
12475.020798	3950.995000	1730.997070	-79.678352
12475.020798	3950.995000	1729.982422	69.909828
12475.020798	3950.995000	1728.967773	68.565323
12475.020798	3950.995000	1727.952148	-126.022636
12475.020798	3950.995000	1726.937500	4.213512
12475.020798	3950.995000	1725.921875	2.425928
12475.020798	3950.995000	1724.906250	-39.515762
12475.020798	3950.995000	1723.890625	-62.768131
12475.020798	3950.995000	1722.875000	26.756388
12475.020798	3950.995000	1721.858398	22.002142
12475.020798	3950.995000	1720.841797	94.699699
12475.020798	3950.995000	1719.825195	96.686676
12475.020798	3950.995000	1718.808594	164.339752
12475.020798	3950.995000	1717.791992	1.498527
12475.020798	3950.995000	1716.774414	139.316666
12475.020798	3950.995000	1715.756836	70.193466
12475.020798	3950.995000	1714.739258	78.455856
12475.020798	3950.995000	1713.721680	142.923950
12475.020798	3950.995000	1712.704102	357.481354
12475.020798	3950.995000	1711.685547	189.147308
12475.020798	3950.995000	1710.667969	173.299667
12475.020798	3950.995000	1709.649414	-56.251522
12475.020798	3950.995000	1708.630859	0.357966
12475.020798	3950.995000	1707.611328	141.218170
12475.020798	3950.995000	1706.592773	204.495209
12475.020798	3950.995000	1705.573242	190.198288
12475.020798	3950.995000	1704.553711	159.341644
12475.020798	3950.995000	1703.534180	208.033615
12475.020798	3950.995000	1702.513672	401.825562
12475.020798	3950.995000	1701.494141	229.902603
12475.020798	3950.995000	1700.473633	303.836121
12475.020798	3950.995000	1699.453125	363.533722
12475.020798	3950.995000	1698.432617	163.133087
12475.020798	3950.995000	1697.412109	208.476074
12475.020798	3950.995000	1696.390625	445.566376
12475.020798	3950.995000	1695.369141	338.389374
12475.020798	3950.995000	1694.347656	390.205902
12475.020798	3950.995000	1693.326172	308.501373
12475.020798	3950.995000	1692.304688	184.572815
12475.020798	3950.995000	1691.282227	231.224060
12475.020798	3950.995000	1690.260742	361.891602
12475.020798	3950.995000	1689.238281	223.510086
12475.020798	3950.995000	1688.214844	190.176895
12475.020798	3950.995000	1687.192383	273.555969
12475.020798	3950.995000	1686.168945	295.983521
12475.020798	3950.995000	1685.146484	322.940460
12475.020798	3950.995000	1684.123047	380.069122
12475.020798	3950.995000	1683.099609	413.672150
12475.020798	3950.995000	1682.075195	353.708588
12475.020798	3950.995000	1681.051758	256.291412
12475.020798	3950.995000	1680.027344	259.077484
12475.020798	3950.995000	1679.002930	317.701172
12475.020798	3950.995000	1677.978516	399.474365
12475.020798	3950.995000	1676.953125	483.373047
12475.020798	3950.995000	1675.928711	592.756775
12475.020798	3950.995000	1674.903320	447.811401
12475.020798	3950.995000	1673.877930	633.748291
12475.020798	3950.995000	1672.852539	642.351990
12475.020798	3950.995000	1671.826172	785.912354
12475.020798	3950.995000	1670.800781	777.871460
12475.020798	3950.995000	1669.774414	788.291870
12475.020798	3950.995000	1668.748047	863.756714
12475.020798	3950.995000	1667.721680	831.947205
12475.020798	3950.995000	1666.694336	1002.484680
12475.020798	3950.995000	1665.667969	986.651428
12475.020798	3950.995000	1664.640625	1105.603394
12475.020798	3950.995000	1663.613281	1196.445190
12475.020798	3950.995000	1662.585938	1114.986938
12475.020798	3950.995000	1661.557617	1319.417725
12475.020798	3950.995000	1660.530273	1542.245850
12475.020798	3950.995000	1659.501953	1474.248291
12475.020798	3950.995000	1658.473633	1373.592651
12475.020798	3950.995000	1657.444336	1423.842529
12475.020798	3950.995000	1656.416016	1585.466553
12475.020798	3950.995000	1655.386719	1793.312744
12475.020798	3950.995000	1654.358398	1787.308228
12475.020798	3950.995000	1653.328125	2052.768311
12475.020798	3950.995000	1652.298828	2006.940796
12475.020798	3950.995000	1651.269531	2172.195557
12475.020798	3950.995000	1650.239258	2126.053711
12475.020798	3950.995000	1649.208984	2147.070801
12475.020798	3950.995000	1648.178711	2346.550293
12475.020798	3950.995000	1647.148438	2538.854736
12475.020798	3950.995000	1646.117188	2557.018066
12475.020798	3950.995000	1645.086914	2591.291016
12475.020798	3950.995000	1644.055664	2808.493896
12475.020798	3950.995000	1643.024414	2680.190918
12475.020798	3950.995000	1641.992188	3077.714844
12475.020798	3950.995000	1640.960938	3298.925781
12475.020798	3950.995000	1639.928711	3401.774902
12475.020798	3950.995000	1638.896484	3624.861572
12475.020798	3950.995000	1637.864258	3840.783936
12475.020798	3950.995000	1636.832031	3903.725098
12475.020798	3950.995000	1635.798828	3971.113770
12475.020798	3950.995000	1634.766602	4154.062012
12475.020798	3950.995000	1633.733398	4126.274414
12475.020798	3950.995000	1632.699219	4250.993652
12475.020798	3950.995000	1631.666016	4377.877930
12475.020798	3950.995000	1630.632813	4749.656738
12475.020798	3950.995000	1629.598633	4827.578125
12475.020798	3950.995000	1628.564453	5191.921387
12475.020798	3950.995000	1627.530273	5227.891113
12475.020798	3950.995000	1626.495117	5210.565430
12475.020798	3950.995000	1625.460938	5710.537598
12475.020798	3950.995000	1624.425781	6226.331543
12475.020798	3950.995000	1623.390625	6330.838867
12475.020798	3950.995000	1622.355469	6499.822754
12475.020798	3950.995000	1621.319336	6964.016602
12475.020798	3950.995000	1620.284180	7097.974121
12475.020798	3950.995000	1619.248047	7266.345215
12475.020798	3950.995000	1618.211914	7123.151367
12475.020798	3950.995000	1617.174805	7394.979004
12475.020798	3950.995000	1616.138672	7553.646484
12475.020798	3950.995000	1615.101563	7719.029785
12475.020798	3950.995000	1614.065430	7792.083984
12475.020798	3950.995000	1613.027344	8014.727539
12475.020798	3950.995000	1611.990234	7688.886230
12475.020798	3950.995000	1610.953125	8042.587402
12475.020798	3950.995000	1609.915039	8439.778320
12475.020798	3950.995000	1608.876953	7883.462402
12475.020798	3950.995000	1607.838867	8086.959473
12475.020798	3950.995000	1606.800781	7434.067871
12475.020798	3950.995000	1605.761719	7391.126953
12475.020798	3950.995000	1604.723633	7348.140137
12475.020798	3950.995000	1603.684570	7452.269531
12475.020798	3950.995000	1602.644531	7151.463867
12475.020798	3950.995000	1601.605469	7285.309082
12475.020798	3950.995000	1600.566406	6844.273926
12475.020798	3950.995000	1599.526367	6752.671875
12475.020798	3950.995000	1598.486328	6913.808105
12475.020798	3950.995000	1597.446289	6507.291504
12475.020798	3950.995000	1596.405273	6863.482422
12475.020798	3950.995000	1595.365234	6486.835938
12475.020798	3950.995000	1594.324219	6601.630371
12475.020798	3950.995000	1593.283203	6629.063965
12475.020798	3950.995000	1592.242188	6390.152832
12475.020798	3950.995000	1591.200195	6518.419434
12475.020798	3950.995000	1590.159180	6426.329102
12475.020798	3950.995000	1589.117188	6515.404297
12475.020798	3950.995000	1588.075195	6487.407227
12475.020798	3950.995000	1587.032227	6681.759277
12475.020798	3950.995000	1585.990234	7022.735840
12475.020798	3950.995000	1584.947266	6707.910645
12475.020798	3950.995000	1583.904297	6686.497070
