#X		#Y		#Wave		#Intensity
13312.174681	3903.115500	1999.980469	100.778122
13312.174681	3903.115500	1999.016602	221.739868
13312.174681	3903.115500	1998.052734	-25.561743
13312.174681	3903.115500	1997.087891	-121.668320
13312.174681	3903.115500	1996.123047	146.418304
13312.174681	3903.115500	1995.158203	-61.275051
13312.174681	3903.115500	1994.193359	-3.932563
13312.174681	3903.115500	1993.228516	1.335259
13312.174681	3903.115500	1992.262695	-23.157328
13312.174681	3903.115500	1991.297852	118.163971
13312.174681	3903.115500	1990.332031	11.897457
13312.174681	3903.115500	1989.366211	51.622761
13312.174681	3903.115500	1988.399414	271.895416
13312.174681	3903.115500	1987.433594	49.288849
13312.174681	3903.115500	1986.466797	-101.550392
13312.174681	3903.115500	1985.500977	-27.356001
13312.174681	3903.115500	1984.534180	61.614044
13312.174681	3903.115500	1983.567383	143.108673
13312.174681	3903.115500	1982.599609	7.077912
13312.174681	3903.115500	1981.632813	81.092247
13312.174681	3903.115500	1980.665039	167.408905
13312.174681	3903.115500	1979.697266	120.301109
13312.174681	3903.115500	1978.729492	-35.459743
13312.174681	3903.115500	1977.761719	169.288315
13312.174681	3903.115500	1976.792969	20.951460
13312.174681	3903.115500	1975.825195	50.356869
13312.174681	3903.115500	1974.856445	97.013222
13312.174681	3903.115500	1973.887695	67.163254
13312.174681	3903.115500	1972.918945	20.050219
13312.174681	3903.115500	1971.949219	0.076081
13312.174681	3903.115500	1970.980469	-56.879398
13312.174681	3903.115500	1970.010742	73.543709
13312.174681	3903.115500	1969.041016	85.605019
13312.174681	3903.115500	1968.071289	-35.413387
13312.174681	3903.115500	1967.101563	122.035667
13312.174681	3903.115500	1966.130859	5.984724
13312.174681	3903.115500	1965.161133	8.205362
13312.174681	3903.115500	1964.190430	44.903931
13312.174681	3903.115500	1963.219727	-68.591866
13312.174681	3903.115500	1962.249023	-61.418671
13312.174681	3903.115500	1961.277344	-128.076828
13312.174681	3903.115500	1960.306641	24.303591
13312.174681	3903.115500	1959.334961	38.861423
13312.174681	3903.115500	1958.363281	119.839172
13312.174681	3903.115500	1957.391602	26.185928
13312.174681	3903.115500	1956.419922	-114.138496
13312.174681	3903.115500	1955.447266	-42.974464
13312.174681	3903.115500	1954.474609	190.402267
13312.174681	3903.115500	1953.501953	175.499222
13312.174681	3903.115500	1952.529297	-8.918742
13312.174681	3903.115500	1951.556641	-151.490173
13312.174681	3903.115500	1950.583984	-146.624115
13312.174681	3903.115500	1949.610352	89.090408
13312.174681	3903.115500	1948.636719	-18.996202
13312.174681	3903.115500	1947.663086	-33.742821
13312.174681	3903.115500	1946.689453	10.437929
13312.174681	3903.115500	1945.715820	47.260353
13312.174681	3903.115500	1944.741211	-1.781116
13312.174681	3903.115500	1943.767578	39.975758
13312.174681	3903.115500	1942.792969	89.093613
13312.174681	3903.115500	1941.818359	-97.180534
13312.174681	3903.115500	1940.842773	182.432861
13312.174681	3903.115500	1939.868164	111.455605
13312.174681	3903.115500	1938.892578	155.706268
13312.174681	3903.115500	1937.916992	-108.762184
13312.174681	3903.115500	1936.941406	31.096788
13312.174681	3903.115500	1935.965820	-93.597031
13312.174681	3903.115500	1934.990234	58.495346
13312.174681	3903.115500	1934.013672	88.134392
13312.174681	3903.115500	1933.037109	117.784943
13312.174681	3903.115500	1932.060547	66.680923
13312.174681	3903.115500	1931.083984	71.899506
13312.174681	3903.115500	1930.107422	-13.383537
13312.174681	3903.115500	1929.129883	72.613266
13312.174681	3903.115500	1928.153320	70.558830
13312.174681	3903.115500	1927.175781	-83.074226
13312.174681	3903.115500	1926.198242	-14.157839
13312.174681	3903.115500	1925.219727	35.200809
13312.174681	3903.115500	1924.242188	11.248961
13312.174681	3903.115500	1923.263672	-71.312630
13312.174681	3903.115500	1922.285156	56.267952
13312.174681	3903.115500	1921.306641	54.373329
13312.174681	3903.115500	1920.328125	91.572128
13312.174681	3903.115500	1919.349609	-7.946908
13312.174681	3903.115500	1918.370117	-2.441841
13312.174681	3903.115500	1917.391602	-16.442720
13312.174681	3903.115500	1916.412109	-220.751541
13312.174681	3903.115500	1915.431641	80.056725
13312.174681	3903.115500	1914.452148	24.641329
13312.174681	3903.115500	1913.472656	71.696312
13312.174681	3903.115500	1912.492188	101.683861
13312.174681	3903.115500	1911.511719	-53.600590
13312.174681	3903.115500	1910.531250	-8.938664
13312.174681	3903.115500	1909.550781	-56.880081
13312.174681	3903.115500	1908.569336	7.293711
13312.174681	3903.115500	1907.588867	-96.627579
13312.174681	3903.115500	1906.607422	133.186600
13312.174681	3903.115500	1905.625977	102.368912
13312.174681	3903.115500	1904.644531	64.274345
13312.174681	3903.115500	1903.662109	72.460823
13312.174681	3903.115500	1902.680664	-67.802185
13312.174681	3903.115500	1901.698242	-23.064400
13312.174681	3903.115500	1900.715820	-104.839310
13312.174681	3903.115500	1899.733398	-108.731926
13312.174681	3903.115500	1898.750000	-27.490953
13312.174681	3903.115500	1897.767578	61.026886
13312.174681	3903.115500	1896.784180	96.040535
13312.174681	3903.115500	1895.800781	-19.645760
13312.174681	3903.115500	1894.817383	17.821930
13312.174681	3903.115500	1893.833984	79.583649
13312.174681	3903.115500	1892.850586	-108.881203
13312.174681	3903.115500	1891.866211	108.342743
13312.174681	3903.115500	1890.881836	-2.331964
13312.174681	3903.115500	1889.897461	-20.697430
13312.174681	3903.115500	1888.913086	-116.726440
13312.174681	3903.115500	1887.927734	68.816689
13312.174681	3903.115500	1886.943359	123.264374
13312.174681	3903.115500	1885.958008	32.133053
13312.174681	3903.115500	1884.972656	-44.405548
13312.174681	3903.115500	1883.987305	19.748026
13312.174681	3903.115500	1883.001953	-197.384903
13312.174681	3903.115500	1882.015625	-7.158997
13312.174681	3903.115500	1881.029297	23.027628
13312.174681	3903.115500	1880.042969	-17.072773
13312.174681	3903.115500	1879.056641	10.683660
13312.174681	3903.115500	1878.070313	-41.510387
13312.174681	3903.115500	1877.083984	61.321938
13312.174681	3903.115500	1876.096680	98.733200
13312.174681	3903.115500	1875.109375	70.759796
13312.174681	3903.115500	1874.122070	47.635906
13312.174681	3903.115500	1873.134766	150.365723
13312.174681	3903.115500	1872.146484	-134.100769
13312.174681	3903.115500	1871.159180	53.290409
13312.174681	3903.115500	1870.170898	-69.000984
13312.174681	3903.115500	1869.182617	19.144463
13312.174681	3903.115500	1868.194336	116.921364
13312.174681	3903.115500	1867.205078	-29.507448
13312.174681	3903.115500	1866.216797	244.666946
13312.174681	3903.115500	1865.227539	40.255302
13312.174681	3903.115500	1864.238281	-94.023331
13312.174681	3903.115500	1863.249023	129.252701
13312.174681	3903.115500	1862.259766	60.196453
13312.174681	3903.115500	1861.269531	-20.918442
13312.174681	3903.115500	1860.279297	117.683250
13312.174681	3903.115500	1859.290039	108.976997
13312.174681	3903.115500	1858.298828	-83.156395
13312.174681	3903.115500	1857.308594	81.879875
13312.174681	3903.115500	1856.318359	191.352066
13312.174681	3903.115500	1855.327148	192.226608
13312.174681	3903.115500	1854.335938	-48.071293
13312.174681	3903.115500	1853.344727	56.491364
13312.174681	3903.115500	1852.353516	-29.444521
13312.174681	3903.115500	1851.362305	84.679436
13312.174681	3903.115500	1850.370117	22.829575
13312.174681	3903.115500	1849.377930	173.000046
13312.174681	3903.115500	1848.385742	123.159409
13312.174681	3903.115500	1847.393555	20.331865
13312.174681	3903.115500	1846.401367	52.364883
13312.174681	3903.115500	1845.408203	106.029396
13312.174681	3903.115500	1844.415039	171.685394
13312.174681	3903.115500	1843.421875	92.898117
13312.174681	3903.115500	1842.428711	30.957911
13312.174681	3903.115500	1841.435547	53.213718
13312.174681	3903.115500	1840.441406	207.721039
13312.174681	3903.115500	1839.448242	-29.832354
13312.174681	3903.115500	1838.454102	119.768692
13312.174681	3903.115500	1837.459961	103.419037
13312.174681	3903.115500	1836.464844	-73.982185
13312.174681	3903.115500	1835.470703	125.917610
13312.174681	3903.115500	1834.475586	-94.726219
13312.174681	3903.115500	1833.480469	83.421257
13312.174681	3903.115500	1832.485352	-24.319790
13312.174681	3903.115500	1831.490234	12.016324
13312.174681	3903.115500	1830.495117	-62.126682
13312.174681	3903.115500	1829.499023	55.743423
13312.174681	3903.115500	1828.502930	-28.047543
13312.174681	3903.115500	1827.506836	99.299141
13312.174681	3903.115500	1826.510742	3.466467
13312.174681	3903.115500	1825.513672	-41.999737
13312.174681	3903.115500	1824.517578	123.536575
13312.174681	3903.115500	1823.520508	-77.848503
13312.174681	3903.115500	1822.523438	176.247269
13312.174681	3903.115500	1821.526367	-53.908131
13312.174681	3903.115500	1820.529297	61.032402
13312.174681	3903.115500	1819.531250	1.001225
13312.174681	3903.115500	1818.533203	36.762558
13312.174681	3903.115500	1817.535156	-104.746155
13312.174681	3903.115500	1816.537109	148.826111
13312.174681	3903.115500	1815.539063	-11.885427
13312.174681	3903.115500	1814.540039	145.749680
13312.174681	3903.115500	1813.541992	181.239929
13312.174681	3903.115500	1812.542969	-106.322708
13312.174681	3903.115500	1811.543945	55.893661
13312.174681	3903.115500	1810.543945	-61.820007
13312.174681	3903.115500	1809.544922	-9.758540
13312.174681	3903.115500	1808.544922	123.521736
13312.174681	3903.115500	1807.544922	24.846596
13312.174681	3903.115500	1806.544922	95.841064
13312.174681	3903.115500	1805.544922	-31.558310
13312.174681	3903.115500	1804.544922	15.435145
13312.174681	3903.115500	1803.543945	67.137985
13312.174681	3903.115500	1802.542969	56.683849
13312.174681	3903.115500	1801.541992	74.835022
13312.174681	3903.115500	1800.541016	-50.298084
13312.174681	3903.115500	1799.539063	8.338731
13312.174681	3903.115500	1798.538086	76.449287
13312.174681	3903.115500	1797.536133	106.308853
13312.174681	3903.115500	1796.534180	167.115372
13312.174681	3903.115500	1795.532227	20.362593
13312.174681	3903.115500	1794.529297	9.522980
13312.174681	3903.115500	1793.527344	-13.282618
13312.174681	3903.115500	1792.524414	137.862213
13312.174681	3903.115500	1791.521484	-44.733448
13312.174681	3903.115500	1790.518555	68.131218
13312.174681	3903.115500	1789.514648	52.259026
13312.174681	3903.115500	1788.511719	-104.179802
13312.174681	3903.115500	1787.507813	89.428925
13312.174681	3903.115500	1786.503906	-9.931108
13312.174681	3903.115500	1785.500000	154.911194
13312.174681	3903.115500	1784.496094	19.766567
13312.174681	3903.115500	1783.491211	265.327698
13312.174681	3903.115500	1782.486328	144.371964
13312.174681	3903.115500	1781.481445	16.269697
13312.174681	3903.115500	1780.476563	-2.448086
13312.174681	3903.115500	1779.471680	31.091900
13312.174681	3903.115500	1778.465820	52.672432
13312.174681	3903.115500	1777.460938	5.264807
13312.174681	3903.115500	1776.455078	-23.176552
13312.174681	3903.115500	1775.449219	29.113962
13312.174681	3903.115500	1774.442383	69.445313
13312.174681	3903.115500	1773.436523	7.583211
13312.174681	3903.115500	1772.429688	21.666246
13312.174681	3903.115500	1771.422852	83.165359
13312.174681	3903.115500	1770.416016	127.966133
13312.174681	3903.115500	1769.409180	-29.026810
13312.174681	3903.115500	1768.402344	200.728378
13312.174681	3903.115500	1767.394531	83.986137
13312.174681	3903.115500	1766.386719	-30.400938
13312.174681	3903.115500	1765.378906	-109.234711
13312.174681	3903.115500	1764.371094	72.698563
13312.174681	3903.115500	1763.362305	-3.879581
13312.174681	3903.115500	1762.354492	-16.496046
13312.174681	3903.115500	1761.345703	67.978310
13312.174681	3903.115500	1760.336914	-84.549309
13312.174681	3903.115500	1759.328125	-28.640005
13312.174681	3903.115500	1758.318359	-48.599354
13312.174681	3903.115500	1757.308594	-113.600029
13312.174681	3903.115500	1756.299805	36.789543
13312.174681	3903.115500	1755.290039	-108.797745
13312.174681	3903.115500	1754.279297	-138.443146
13312.174681	3903.115500	1753.269531	58.995037
13312.174681	3903.115500	1752.258789	-13.373556
13312.174681	3903.115500	1751.249023	122.350822
13312.174681	3903.115500	1750.238281	-23.427481
13312.174681	3903.115500	1749.226563	3.364130
13312.174681	3903.115500	1748.215820	167.181442
13312.174681	3903.115500	1747.204102	-80.331757
13312.174681	3903.115500	1746.193359	64.413368
13312.174681	3903.115500	1745.181641	-34.283386
13312.174681	3903.115500	1744.168945	-26.724850
13312.174681	3903.115500	1743.157227	-101.876007
13312.174681	3903.115500	1742.144531	-148.734238
13312.174681	3903.115500	1741.132813	-216.875610
13312.174681	3903.115500	1740.120117	-207.175171
13312.174681	3903.115500	1739.106445	-86.643730
13312.174681	3903.115500	1738.093750	-81.813515
13312.174681	3903.115500	1737.080078	5.502615
13312.174681	3903.115500	1736.067383	-44.050087
13312.174681	3903.115500	1735.053711	12.451145
13312.174681	3903.115500	1734.040039	31.151562
13312.174681	3903.115500	1733.025391	-30.357687
13312.174681	3903.115500	1732.011719	-91.898628
13312.174681	3903.115500	1730.997070	-82.801849
13312.174681	3903.115500	1729.982422	69.919960
13312.174681	3903.115500	1728.967773	1.141497
13312.174681	3903.115500	1727.952148	-58.258244
13312.174681	3903.115500	1726.937500	160.108292
13312.174681	3903.115500	1725.921875	-80.660294
13312.174681	3903.115500	1724.906250	-46.058334
13312.174681	3903.115500	1723.890625	37.880718
13312.174681	3903.115500	1722.875000	-2.950329
13312.174681	3903.115500	1721.858398	54.951267
13312.174681	3903.115500	1720.841797	70.443985
13312.174681	3903.115500	1719.825195	74.116463
13312.174681	3903.115500	1718.808594	65.975800
13312.174681	3903.115500	1717.791992	179.988083
13312.174681	3903.115500	1716.774414	44.821838
13312.174681	3903.115500	1715.756836	175.116135
13312.174681	3903.115500	1714.739258	86.862961
13312.174681	3903.115500	1713.721680	-8.459840
13312.174681	3903.115500	1712.704102	58.203213
13312.174681	3903.115500	1711.685547	-11.376061
13312.174681	3903.115500	1710.667969	76.271317
13312.174681	3903.115500	1709.649414	84.038742
13312.174681	3903.115500	1708.630859	21.363041
13312.174681	3903.115500	1707.611328	207.289307
13312.174681	3903.115500	1706.592773	320.394379
13312.174681	3903.115500	1705.573242	46.505814
13312.174681	3903.115500	1704.553711	16.476725
13312.174681	3903.115500	1703.534180	176.258652
13312.174681	3903.115500	1702.513672	359.351532
13312.174681	3903.115500	1701.494141	87.790741
13312.174681	3903.115500	1700.473633	50.525475
13312.174681	3903.115500	1699.453125	207.613205
13312.174681	3903.115500	1698.432617	85.934708
13312.174681	3903.115500	1697.412109	128.132477
13312.174681	3903.115500	1696.390625	226.431793
13312.174681	3903.115500	1695.369141	43.808338
13312.174681	3903.115500	1694.347656	247.275223
13312.174681	3903.115500	1693.326172	226.032578
13312.174681	3903.115500	1692.304688	153.290817
13312.174681	3903.115500	1691.282227	169.381470
13312.174681	3903.115500	1690.260742	241.536835
13312.174681	3903.115500	1689.238281	89.199753
13312.174681	3903.115500	1688.214844	240.690887
13312.174681	3903.115500	1687.192383	64.948349
13312.174681	3903.115500	1686.168945	263.013885
13312.174681	3903.115500	1685.146484	269.429810
13312.174681	3903.115500	1684.123047	261.775818
13312.174681	3903.115500	1683.099609	251.743454
13312.174681	3903.115500	1682.075195	437.753296
13312.174681	3903.115500	1681.051758	280.557526
13312.174681	3903.115500	1680.027344	328.720306
13312.174681	3903.115500	1679.002930	278.830444
13312.174681	3903.115500	1677.978516	147.272705
13312.174681	3903.115500	1676.953125	325.894257
13312.174681	3903.115500	1675.928711	310.878296
13312.174681	3903.115500	1674.903320	347.104645
13312.174681	3903.115500	1673.877930	392.598785
13312.174681	3903.115500	1672.852539	393.755280
13312.174681	3903.115500	1671.826172	152.548599
13312.174681	3903.115500	1670.800781	326.051971
13312.174681	3903.115500	1669.774414	457.516479
13312.174681	3903.115500	1668.748047	372.331055
13312.174681	3903.115500	1667.721680	322.062683
13312.174681	3903.115500	1666.694336	318.319427
13312.174681	3903.115500	1665.667969	354.111481
13312.174681	3903.115500	1664.640625	408.458099
13312.174681	3903.115500	1663.613281	604.653687
13312.174681	3903.115500	1662.585938	496.044586
13312.174681	3903.115500	1661.557617	499.054169
13312.174681	3903.115500	1660.530273	629.911621
13312.174681	3903.115500	1659.501953	565.412354
13312.174681	3903.115500	1658.473633	624.081421
13312.174681	3903.115500	1657.444336	668.743469
13312.174681	3903.115500	1656.416016	769.120117
13312.174681	3903.115500	1655.386719	562.815247
13312.174681	3903.115500	1654.358398	704.910767
13312.174681	3903.115500	1653.328125	819.041504
13312.174681	3903.115500	1652.298828	798.464539
13312.174681	3903.115500	1651.269531	935.690125
13312.174681	3903.115500	1650.239258	1017.131592
13312.174681	3903.115500	1649.208984	1012.671753
13312.174681	3903.115500	1648.178711	994.268188
13312.174681	3903.115500	1647.148438	903.949951
13312.174681	3903.115500	1646.117188	999.126404
13312.174681	3903.115500	1645.086914	1080.340088
13312.174681	3903.115500	1644.055664	1133.673706
13312.174681	3903.115500	1643.024414	918.147888
13312.174681	3903.115500	1641.992188	1221.660278
13312.174681	3903.115500	1640.960938	989.938232
13312.174681	3903.115500	1639.928711	1094.094482
13312.174681	3903.115500	1638.896484	1221.345093
13312.174681	3903.115500	1637.864258	1181.835205
13312.174681	3903.115500	1636.832031	1306.660400
13312.174681	3903.115500	1635.798828	1315.697632
13312.174681	3903.115500	1634.766602	1313.151733
13312.174681	3903.115500	1633.733398	1116.259644
13312.174681	3903.115500	1632.699219	1199.272949
13312.174681	3903.115500	1631.666016	1173.561646
13312.174681	3903.115500	1630.632813	1436.840820
13312.174681	3903.115500	1629.598633	1265.424805
13312.174681	3903.115500	1628.564453	1297.434082
13312.174681	3903.115500	1627.530273	1456.500244
13312.174681	3903.115500	1626.495117	1647.823364
13312.174681	3903.115500	1625.460938	1485.679199
13312.174681	3903.115500	1624.425781	1542.957397
13312.174681	3903.115500	1623.390625	1586.347046
13312.174681	3903.115500	1622.355469	1814.380005
13312.174681	3903.115500	1621.319336	1712.268188
13312.174681	3903.115500	1620.284180	1774.027344
13312.174681	3903.115500	1619.248047	1884.190918
13312.174681	3903.115500	1618.211914	2024.287842
13312.174681	3903.115500	1617.174805	2014.414429
13312.174681	3903.115500	1616.138672	2244.337891
13312.174681	3903.115500	1615.101563	1994.665405
13312.174681	3903.115500	1614.065430	2097.726807
13312.174681	3903.115500	1613.027344	2014.070801
13312.174681	3903.115500	1611.990234	2144.715576
13312.174681	3903.115500	1610.953125	2284.519043
13312.174681	3903.115500	1609.915039	2249.226318
13312.174681	3903.115500	1608.876953	2158.684814
13312.174681	3903.115500	1607.838867	2252.343262
13312.174681	3903.115500	1606.800781	2069.766846
13312.174681	3903.115500	1605.761719	2071.347168
13312.174681	3903.115500	1604.723633	2259.297363
13312.174681	3903.115500	1603.684570	2263.142090
13312.174681	3903.115500	1602.644531	2204.881104
13312.174681	3903.115500	1601.605469	2215.635498
13312.174681	3903.115500	1600.566406	2072.359619
13312.174681	3903.115500	1599.526367	2069.343262
13312.174681	3903.115500	1598.486328	2057.138916
13312.174681	3903.115500	1597.446289	1780.720703
13312.174681	3903.115500	1596.405273	1757.093628
13312.174681	3903.115500	1595.365234	1942.493164
13312.174681	3903.115500	1594.324219	1714.489868
13312.174681	3903.115500	1593.283203	1709.278564
13312.174681	3903.115500	1592.242188	1609.967285
13312.174681	3903.115500	1591.200195	2015.577637
13312.174681	3903.115500	1590.159180	1975.921265
13312.174681	3903.115500	1589.117188	1821.580566
13312.174681	3903.115500	1588.075195	1896.669067
13312.174681	3903.115500	1587.032227	1705.728027
13312.174681	3903.115500	1585.990234	1702.884399
13312.174681	3903.115500	1584.947266	1690.876709
13312.174681	3903.115500	1583.904297	1761.392944
13312.174681	3903.115500	1582.861328	1563.809814
