#X		#Y		#Wave		#Intensity
3055.664628	5958.782833	1999.980469	-7.349355
3055.664628	5958.782833	1999.016602	-102.845459
3055.664628	5958.782833	1998.052734	-124.451653
3055.664628	5958.782833	1997.087891	-20.055689
3055.664628	5958.782833	1996.123047	93.828941
3055.664628	5958.782833	1995.158203	26.464937
3055.664628	5958.782833	1994.193359	-108.102089
3055.664628	5958.782833	1993.228516	-96.861008
3055.664628	5958.782833	1992.262695	196.293243
3055.664628	5958.782833	1991.297852	236.529068
3055.664628	5958.782833	1990.332031	127.951157
3055.664628	5958.782833	1989.366211	11.694976
3055.664628	5958.782833	1988.399414	90.646492
3055.664628	5958.782833	1987.433594	-90.426918
3055.664628	5958.782833	1986.466797	215.503754
3055.664628	5958.782833	1985.500977	177.374359
3055.664628	5958.782833	1984.534180	139.019974
3055.664628	5958.782833	1983.567383	16.413069
3055.664628	5958.782833	1982.599609	116.043007
3055.664628	5958.782833	1981.632813	128.947144
3055.664628	5958.782833	1980.665039	252.810211
3055.664628	5958.782833	1979.697266	45.472824
3055.664628	5958.782833	1978.729492	102.256554
3055.664628	5958.782833	1977.761719	-70.767242
3055.664628	5958.782833	1976.792969	126.380417
3055.664628	5958.782833	1975.825195	194.959366
3055.664628	5958.782833	1974.856445	110.373451
3055.664628	5958.782833	1973.887695	-272.843689
3055.664628	5958.782833	1972.918945	-175.054459
3055.664628	5958.782833	1971.949219	48.347214
3055.664628	5958.782833	1970.980469	-199.409760
3055.664628	5958.782833	1970.010742	-10.833169
3055.664628	5958.782833	1969.041016	-27.013767
3055.664628	5958.782833	1968.071289	185.898834
3055.664628	5958.782833	1967.101563	90.651321
3055.664628	5958.782833	1966.130859	148.084244
3055.664628	5958.782833	1965.161133	-99.994385
3055.664628	5958.782833	1964.190430	16.397474
3055.664628	5958.782833	1963.219727	-44.592274
3055.664628	5958.782833	1962.249023	56.842617
3055.664628	5958.782833	1961.277344	185.252365
3055.664628	5958.782833	1960.306641	141.313873
3055.664628	5958.782833	1959.334961	109.641411
3055.664628	5958.782833	1958.363281	-109.007355
3055.664628	5958.782833	1957.391602	193.764740
3055.664628	5958.782833	1956.419922	147.227707
3055.664628	5958.782833	1955.447266	68.715637
3055.664628	5958.782833	1954.474609	263.040405
3055.664628	5958.782833	1953.501953	96.015450
3055.664628	5958.782833	1952.529297	211.594757
3055.664628	5958.782833	1951.556641	-38.917324
3055.664628	5958.782833	1950.583984	-230.401138
3055.664628	5958.782833	1949.610352	142.981216
3055.664628	5958.782833	1948.636719	-1.833201
3055.664628	5958.782833	1947.663086	-227.604111
3055.664628	5958.782833	1946.689453	214.280685
3055.664628	5958.782833	1945.715820	-8.989556
3055.664628	5958.782833	1944.741211	0.897946
3055.664628	5958.782833	1943.767578	182.497009
3055.664628	5958.782833	1942.792969	207.077881
3055.664628	5958.782833	1941.818359	55.116669
3055.664628	5958.782833	1940.842773	-192.388763
3055.664628	5958.782833	1939.868164	99.461441
3055.664628	5958.782833	1938.892578	38.323879
3055.664628	5958.782833	1937.916992	-140.380615
3055.664628	5958.782833	1936.941406	134.204971
3055.664628	5958.782833	1935.965820	153.984390
3055.664628	5958.782833	1934.990234	41.543903
3055.664628	5958.782833	1934.013672	161.763519
3055.664628	5958.782833	1933.037109	17.588772
3055.664628	5958.782833	1932.060547	57.054821
3055.664628	5958.782833	1931.083984	-1.346263
3055.664628	5958.782833	1930.107422	16.146034
3055.664628	5958.782833	1929.129883	-22.600382
3055.664628	5958.782833	1928.153320	21.850489
3055.664628	5958.782833	1927.175781	-73.061287
3055.664628	5958.782833	1926.198242	-346.372528
3055.664628	5958.782833	1925.219727	-89.146255
3055.664628	5958.782833	1924.242188	-3.049641
3055.664628	5958.782833	1923.263672	-185.723785
3055.664628	5958.782833	1922.285156	210.668015
3055.664628	5958.782833	1921.306641	-40.304985
3055.664628	5958.782833	1920.328125	65.378510
3055.664628	5958.782833	1919.349609	119.779770
3055.664628	5958.782833	1918.370117	-89.445854
3055.664628	5958.782833	1917.391602	-56.940212
3055.664628	5958.782833	1916.412109	153.714066
3055.664628	5958.782833	1915.431641	-201.696411
3055.664628	5958.782833	1914.452148	-44.699612
3055.664628	5958.782833	1913.472656	-24.306536
3055.664628	5958.782833	1912.492188	98.514862
3055.664628	5958.782833	1911.511719	62.853039
3055.664628	5958.782833	1910.531250	-65.391563
3055.664628	5958.782833	1909.550781	33.075001
3055.664628	5958.782833	1908.569336	285.027771
3055.664628	5958.782833	1907.588867	42.388111
3055.664628	5958.782833	1906.607422	94.568375
3055.664628	5958.782833	1905.625977	68.823479
3055.664628	5958.782833	1904.644531	99.105278
3055.664628	5958.782833	1903.662109	88.009911
3055.664628	5958.782833	1902.680664	-78.827888
3055.664628	5958.782833	1901.698242	-116.621796
3055.664628	5958.782833	1900.715820	-147.090912
3055.664628	5958.782833	1899.733398	48.680237
3055.664628	5958.782833	1898.750000	69.283707
3055.664628	5958.782833	1897.767578	-26.822905
3055.664628	5958.782833	1896.784180	22.974728
3055.664628	5958.782833	1895.800781	-109.536903
3055.664628	5958.782833	1894.817383	-256.576355
3055.664628	5958.782833	1893.833984	89.670998
3055.664628	5958.782833	1892.850586	-54.920692
3055.664628	5958.782833	1891.866211	-104.738136
3055.664628	5958.782833	1890.881836	-101.117134
3055.664628	5958.782833	1889.897461	-85.365280
3055.664628	5958.782833	1888.913086	-93.900558
3055.664628	5958.782833	1887.927734	40.747593
3055.664628	5958.782833	1886.943359	44.301968
3055.664628	5958.782833	1885.958008	-194.767059
3055.664628	5958.782833	1884.972656	165.363724
3055.664628	5958.782833	1883.987305	-100.349754
3055.664628	5958.782833	1883.001953	-60.471161
3055.664628	5958.782833	1882.015625	-13.358323
3055.664628	5958.782833	1881.029297	208.225037
3055.664628	5958.782833	1880.042969	-127.670547
3055.664628	5958.782833	1879.056641	-56.424236
3055.664628	5958.782833	1878.070313	43.833801
3055.664628	5958.782833	1877.083984	156.129654
3055.664628	5958.782833	1876.096680	-65.825493
3055.664628	5958.782833	1875.109375	135.953720
3055.664628	5958.782833	1874.122070	-6.112137
3055.664628	5958.782833	1873.134766	-99.764648
3055.664628	5958.782833	1872.146484	142.911285
3055.664628	5958.782833	1871.159180	-204.850235
3055.664628	5958.782833	1870.170898	-102.633781
3055.664628	5958.782833	1869.182617	-15.019256
3055.664628	5958.782833	1868.194336	-89.491447
3055.664628	5958.782833	1867.205078	135.768738
3055.664628	5958.782833	1866.216797	211.032974
3055.664628	5958.782833	1865.227539	114.630188
3055.664628	5958.782833	1864.238281	445.846924
3055.664628	5958.782833	1863.249023	32.856560
3055.664628	5958.782833	1862.259766	-53.998539
3055.664628	5958.782833	1861.269531	-32.232708
3055.664628	5958.782833	1860.279297	-119.191986
3055.664628	5958.782833	1859.290039	177.605011
3055.664628	5958.782833	1858.298828	10.840319
3055.664628	5958.782833	1857.308594	259.080078
3055.664628	5958.782833	1856.318359	31.886967
3055.664628	5958.782833	1855.327148	14.536239
3055.664628	5958.782833	1854.335938	26.040709
3055.664628	5958.782833	1853.344727	-107.217216
3055.664628	5958.782833	1852.353516	24.653662
3055.664628	5958.782833	1851.362305	221.453735
3055.664628	5958.782833	1850.370117	80.714668
3055.664628	5958.782833	1849.377930	57.981976
3055.664628	5958.782833	1848.385742	162.822678
3055.664628	5958.782833	1847.393555	137.465897
3055.664628	5958.782833	1846.401367	68.667152
3055.664628	5958.782833	1845.408203	153.859024
3055.664628	5958.782833	1844.415039	-81.227875
3055.664628	5958.782833	1843.421875	18.171787
3055.664628	5958.782833	1842.428711	57.262787
3055.664628	5958.782833	1841.435547	178.012619
3055.664628	5958.782833	1840.441406	-11.682783
3055.664628	5958.782833	1839.448242	190.549850
3055.664628	5958.782833	1838.454102	-30.583403
3055.664628	5958.782833	1837.459961	212.182205
3055.664628	5958.782833	1836.464844	192.748978
3055.664628	5958.782833	1835.470703	24.210991
3055.664628	5958.782833	1834.475586	88.638618
3055.664628	5958.782833	1833.480469	133.687790
3055.664628	5958.782833	1832.485352	135.351547
3055.664628	5958.782833	1831.490234	160.882721
3055.664628	5958.782833	1830.495117	15.812466
3055.664628	5958.782833	1829.499023	300.285492
3055.664628	5958.782833	1828.502930	344.525818
3055.664628	5958.782833	1827.506836	146.264954
3055.664628	5958.782833	1826.510742	144.634689
3055.664628	5958.782833	1825.513672	104.468666
3055.664628	5958.782833	1824.517578	88.147446
3055.664628	5958.782833	1823.520508	102.835220
3055.664628	5958.782833	1822.523438	220.429932
3055.664628	5958.782833	1821.526367	7.085031
3055.664628	5958.782833	1820.529297	78.799690
3055.664628	5958.782833	1819.531250	-7.804174
3055.664628	5958.782833	1818.533203	-87.358185
3055.664628	5958.782833	1817.535156	347.832245
3055.664628	5958.782833	1816.537109	330.153076
3055.664628	5958.782833	1815.539063	218.943466
3055.664628	5958.782833	1814.540039	-38.408730
3055.664628	5958.782833	1813.541992	-99.606117
3055.664628	5958.782833	1812.542969	-172.931091
3055.664628	5958.782833	1811.543945	16.722391
3055.664628	5958.782833	1810.543945	-6.743774
3055.664628	5958.782833	1809.544922	113.095306
3055.664628	5958.782833	1808.544922	12.745006
3055.664628	5958.782833	1807.544922	-18.434879
3055.664628	5958.782833	1806.544922	-16.335409
3055.664628	5958.782833	1805.544922	348.760773
3055.664628	5958.782833	1804.544922	116.292793
3055.664628	5958.782833	1803.543945	17.464170
3055.664628	5958.782833	1802.542969	145.341827
3055.664628	5958.782833	1801.541992	115.394218
3055.664628	5958.782833	1800.541016	128.228516
3055.664628	5958.782833	1799.539063	174.262527
3055.664628	5958.782833	1798.538086	74.529007
3055.664628	5958.782833	1797.536133	-25.378588
3055.664628	5958.782833	1796.534180	139.319870
3055.664628	5958.782833	1795.532227	-13.436235
3055.664628	5958.782833	1794.529297	124.548370
3055.664628	5958.782833	1793.527344	155.006805
3055.664628	5958.782833	1792.524414	-5.446795
3055.664628	5958.782833	1791.521484	12.681725
3055.664628	5958.782833	1790.518555	309.360199
3055.664628	5958.782833	1789.514648	76.862244
3055.664628	5958.782833	1788.511719	30.027546
3055.664628	5958.782833	1787.507813	102.048538
3055.664628	5958.782833	1786.503906	30.979118
3055.664628	5958.782833	1785.500000	138.249207
3055.664628	5958.782833	1784.496094	-21.285431
3055.664628	5958.782833	1783.491211	216.379196
3055.664628	5958.782833	1782.486328	-181.457916
3055.664628	5958.782833	1781.481445	153.233856
3055.664628	5958.782833	1780.476563	230.744019
3055.664628	5958.782833	1779.471680	46.465588
3055.664628	5958.782833	1778.465820	80.723976
3055.664628	5958.782833	1777.460938	-42.102036
3055.664628	5958.782833	1776.455078	29.740288
3055.664628	5958.782833	1775.449219	65.696136
3055.664628	5958.782833	1774.442383	75.270897
3055.664628	5958.782833	1773.436523	56.135174
3055.664628	5958.782833	1772.429688	-176.935394
3055.664628	5958.782833	1771.422852	-4.180212
3055.664628	5958.782833	1770.416016	-213.862183
3055.664628	5958.782833	1769.409180	-195.867218
3055.664628	5958.782833	1768.402344	-90.314621
3055.664628	5958.782833	1767.394531	-25.370159
3055.664628	5958.782833	1766.386719	143.682098
3055.664628	5958.782833	1765.378906	-29.027990
3055.664628	5958.782833	1764.371094	-16.968231
3055.664628	5958.782833	1763.362305	-59.676182
3055.664628	5958.782833	1762.354492	-29.106112
3055.664628	5958.782833	1761.345703	-157.550110
3055.664628	5958.782833	1760.336914	-243.527115
3055.664628	5958.782833	1759.328125	-114.152199
3055.664628	5958.782833	1758.318359	-46.643486
3055.664628	5958.782833	1757.308594	-183.011353
3055.664628	5958.782833	1756.299805	-281.656921
3055.664628	5958.782833	1755.290039	-84.655838
3055.664628	5958.782833	1754.279297	-155.375610
3055.664628	5958.782833	1753.269531	-212.078888
3055.664628	5958.782833	1752.258789	-53.746815
3055.664628	5958.782833	1751.249023	-4.469284
3055.664628	5958.782833	1750.238281	-87.872711
3055.664628	5958.782833	1749.226563	-280.239471
3055.664628	5958.782833	1748.215820	-4.726433
3055.664628	5958.782833	1747.204102	-218.751236
3055.664628	5958.782833	1746.193359	89.277176
3055.664628	5958.782833	1745.181641	-203.084946
3055.664628	5958.782833	1744.168945	-176.727203
3055.664628	5958.782833	1743.157227	-112.796478
3055.664628	5958.782833	1742.144531	-13.717144
3055.664628	5958.782833	1741.132813	-54.144970
3055.664628	5958.782833	1740.120117	-54.677933
3055.664628	5958.782833	1739.106445	-189.951553
3055.664628	5958.782833	1738.093750	-136.634949
3055.664628	5958.782833	1737.080078	41.433540
3055.664628	5958.782833	1736.067383	-261.846954
3055.664628	5958.782833	1735.053711	-124.338921
3055.664628	5958.782833	1734.040039	126.056236
3055.664628	5958.782833	1733.025391	112.141479
3055.664628	5958.782833	1732.011719	-64.552460
3055.664628	5958.782833	1730.997070	13.033296
3055.664628	5958.782833	1729.982422	111.578369
3055.664628	5958.782833	1728.967773	-68.029404
3055.664628	5958.782833	1727.952148	-68.848213
3055.664628	5958.782833	1726.937500	-95.745651
3055.664628	5958.782833	1725.921875	136.048279
3055.664628	5958.782833	1724.906250	-187.835495
3055.664628	5958.782833	1723.890625	158.766418
3055.664628	5958.782833	1722.875000	116.882645
3055.664628	5958.782833	1721.858398	98.305611
3055.664628	5958.782833	1720.841797	-47.448135
3055.664628	5958.782833	1719.825195	168.717529
3055.664628	5958.782833	1718.808594	-160.741882
3055.664628	5958.782833	1717.791992	195.975845
3055.664628	5958.782833	1716.774414	101.187775
3055.664628	5958.782833	1715.756836	46.178093
3055.664628	5958.782833	1714.739258	225.877045
3055.664628	5958.782833	1713.721680	104.723671
3055.664628	5958.782833	1712.704102	6.904130
3055.664628	5958.782833	1711.685547	-23.017221
3055.664628	5958.782833	1710.667969	50.180283
3055.664628	5958.782833	1709.649414	-3.579477
3055.664628	5958.782833	1708.630859	31.649256
3055.664628	5958.782833	1707.611328	47.887310
3055.664628	5958.782833	1706.592773	146.048203
3055.664628	5958.782833	1705.573242	-30.376091
3055.664628	5958.782833	1704.553711	168.180115
3055.664628	5958.782833	1703.534180	94.594574
3055.664628	5958.782833	1702.513672	77.074959
3055.664628	5958.782833	1701.494141	410.863647
3055.664628	5958.782833	1700.473633	521.782227
3055.664628	5958.782833	1699.453125	133.627701
3055.664628	5958.782833	1698.432617	344.907898
3055.664628	5958.782833	1697.412109	448.247772
3055.664628	5958.782833	1696.390625	310.257568
3055.664628	5958.782833	1695.369141	69.186150
3055.664628	5958.782833	1694.347656	455.119537
3055.664628	5958.782833	1693.326172	244.204300
3055.664628	5958.782833	1692.304688	150.161209
3055.664628	5958.782833	1691.282227	294.490540
3055.664628	5958.782833	1690.260742	466.699768
3055.664628	5958.782833	1689.238281	411.914276
3055.664628	5958.782833	1688.214844	193.372086
3055.664628	5958.782833	1687.192383	409.419464
3055.664628	5958.782833	1686.168945	412.610687
3055.664628	5958.782833	1685.146484	168.097229
3055.664628	5958.782833	1684.123047	278.473969
3055.664628	5958.782833	1683.099609	456.382263
3055.664628	5958.782833	1682.075195	524.335144
3055.664628	5958.782833	1681.051758	643.506531
3055.664628	5958.782833	1680.027344	209.420120
3055.664628	5958.782833	1679.002930	461.295990
3055.664628	5958.782833	1677.978516	367.720398
3055.664628	5958.782833	1676.953125	336.989105
3055.664628	5958.782833	1675.928711	282.861267
3055.664628	5958.782833	1674.903320	128.355637
3055.664628	5958.782833	1673.877930	127.626480
3055.664628	5958.782833	1672.852539	194.361740
3055.664628	5958.782833	1671.826172	568.475891
3055.664628	5958.782833	1670.800781	599.932190
3055.664628	5958.782833	1669.774414	577.664673
3055.664628	5958.782833	1668.748047	532.013611
3055.664628	5958.782833	1667.721680	563.104492
3055.664628	5958.782833	1666.694336	428.779266
3055.664628	5958.782833	1665.667969	534.146606
3055.664628	5958.782833	1664.640625	674.243286
3055.664628	5958.782833	1663.613281	865.370972
3055.664628	5958.782833	1662.585938	930.733398
3055.664628	5958.782833	1661.557617	935.484619
3055.664628	5958.782833	1660.530273	1244.753784
3055.664628	5958.782833	1659.501953	977.297485
3055.664628	5958.782833	1658.473633	1158.412231
3055.664628	5958.782833	1657.444336	1367.226318
3055.664628	5958.782833	1656.416016	1311.070679
3055.664628	5958.782833	1655.386719	994.679993
3055.664628	5958.782833	1654.358398	1212.500732
3055.664628	5958.782833	1653.328125	1307.041382
3055.664628	5958.782833	1652.298828	1401.511475
3055.664628	5958.782833	1651.269531	1681.557007
3055.664628	5958.782833	1650.239258	1826.806030
3055.664628	5958.782833	1649.208984	1804.897339
3055.664628	5958.782833	1648.178711	1611.286621
3055.664628	5958.782833	1647.148438	1584.677856
3055.664628	5958.782833	1646.117188	1877.972290
3055.664628	5958.782833	1645.086914	1906.857666
3055.664628	5958.782833	1644.055664	1979.688599
3055.664628	5958.782833	1643.024414	2047.811523
3055.664628	5958.782833	1641.992188	2044.008301
3055.664628	5958.782833	1640.960938	2355.240234
3055.664628	5958.782833	1639.928711	2791.346680
3055.664628	5958.782833	1638.896484	2525.634277
3055.664628	5958.782833	1637.864258	3010.090576
3055.664628	5958.782833	1636.832031	3260.550049
3055.664628	5958.782833	1635.798828	3344.226563
3055.664628	5958.782833	1634.766602	3527.376465
3055.664628	5958.782833	1633.733398	3291.688232
3055.664628	5958.782833	1632.699219	3842.416504
3055.664628	5958.782833	1631.666016	4041.462402
3055.664628	5958.782833	1630.632813	3969.918213
3055.664628	5958.782833	1629.598633	4245.083984
3055.664628	5958.782833	1628.564453	4323.696777
3055.664628	5958.782833	1627.530273	4369.927246
3055.664628	5958.782833	1626.495117	4727.975586
3055.664628	5958.782833	1625.460938	4654.003906
3055.664628	5958.782833	1624.425781	4670.091797
3055.664628	5958.782833	1623.390625	4388.339844
3055.664628	5958.782833	1622.355469	4762.289063
3055.664628	5958.782833	1621.319336	4568.317871
3055.664628	5958.782833	1620.284180	4674.446289
3055.664628	5958.782833	1619.248047	5052.745605
3055.664628	5958.782833	1618.211914	5271.763184
3055.664628	5958.782833	1617.174805	5186.275879
3055.664628	5958.782833	1616.138672	5587.381348
3055.664628	5958.782833	1615.101563	5448.901367
3055.664628	5958.782833	1614.065430	5739.229980
3055.664628	5958.782833	1613.027344	6022.499023
3055.664628	5958.782833	1611.990234	6577.587891
3055.664628	5958.782833	1610.953125	6330.902832
3055.664628	5958.782833	1609.915039	6464.314453
3055.664628	5958.782833	1608.876953	6715.150391
3055.664628	5958.782833	1607.838867	6636.735840
3055.664628	5958.782833	1606.800781	6339.747559
3055.664628	5958.782833	1605.761719	6160.253418
3055.664628	5958.782833	1604.723633	5824.468750
3055.664628	5958.782833	1603.684570	5803.980957
3055.664628	5958.782833	1602.644531	6179.105469
3055.664628	5958.782833	1601.605469	5813.771484
3055.664628	5958.782833	1600.566406	5549.801758
3055.664628	5958.782833	1599.526367	5173.344727
3055.664628	5958.782833	1598.486328	4925.798340
3055.664628	5958.782833	1597.446289	5121.862305
3055.664628	5958.782833	1596.405273	5049.125000
3055.664628	5958.782833	1595.365234	4923.707031
3055.664628	5958.782833	1594.324219	4791.497070
3055.664628	5958.782833	1593.283203	4670.905762
3055.664628	5958.782833	1592.242188	4823.598633
3055.664628	5958.782833	1591.200195	4554.023438
3055.664628	5958.782833	1590.159180	4954.666992
3055.664628	5958.782833	1589.117188	5034.055176
3055.664628	5958.782833	1588.075195	4819.933594
3055.664628	5958.782833	1587.032227	4812.345215
3055.664628	5958.782833	1585.990234	4960.797852
3055.664628	5958.782833	1584.947266	4962.567383
3055.664628	5958.782833	1583.904297	5136.326660
3055.664628	5958.782833	1582.861328	5468.232910
3055.664628	5958.782833	1581.818359	5309.874512
3055.664628	5958.782833	1580.775391	5268.507813
3055.664628	5958.782833	1579.731445	5637.152344
3055.664628	5958.782833	1578.687500	5465.444336
3055.664628	5958.782833	1577.643555	5493.077637
3055.664628	5958.782833	1576.598633	5859.517090
3055.664628	5958.782833	1575.554688	5784.351563
