#X		#Y		#Wave		#Intensity
3053.736543	5961.720833	1999.980469	-258.743286
3053.736543	5961.720833	1999.016602	-210.277435
3053.736543	5961.720833	1998.052734	-44.464947
3053.736543	5961.720833	1997.087891	-249.333252
3053.736543	5961.720833	1996.123047	-31.806942
3053.736543	5961.720833	1995.158203	15.864281
3053.736543	5961.720833	1994.193359	7.746289
3053.736543	5961.720833	1993.228516	107.344574
3053.736543	5961.720833	1992.262695	-108.711761
3053.736543	5961.720833	1991.297852	-199.631744
3053.736543	5961.720833	1990.332031	131.576721
3053.736543	5961.720833	1989.366211	-55.595108
3053.736543	5961.720833	1988.399414	-30.981619
3053.736543	5961.720833	1987.433594	-118.729111
3053.736543	5961.720833	1986.466797	25.045124
3053.736543	5961.720833	1985.500977	115.867348
3053.736543	5961.720833	1984.534180	64.825783
3053.736543	5961.720833	1983.567383	156.265411
3053.736543	5961.720833	1982.599609	150.434692
3053.736543	5961.720833	1981.632813	111.641853
3053.736543	5961.720833	1980.665039	506.841278
3053.736543	5961.720833	1979.697266	174.975555
3053.736543	5961.720833	1978.729492	84.486763
3053.736543	5961.720833	1977.761719	331.555511
3053.736543	5961.720833	1976.792969	234.723495
3053.736543	5961.720833	1975.825195	127.382492
3053.736543	5961.720833	1974.856445	145.289505
3053.736543	5961.720833	1973.887695	51.553967
3053.736543	5961.720833	1972.918945	243.393463
3053.736543	5961.720833	1971.949219	350.744965
3053.736543	5961.720833	1970.980469	277.512329
3053.736543	5961.720833	1970.010742	87.918175
3053.736543	5961.720833	1969.041016	275.015472
3053.736543	5961.720833	1968.071289	316.167389
3053.736543	5961.720833	1967.101563	245.974808
3053.736543	5961.720833	1966.130859	200.007126
3053.736543	5961.720833	1965.161133	30.493979
3053.736543	5961.720833	1964.190430	279.279999
3053.736543	5961.720833	1963.219727	350.329834
3053.736543	5961.720833	1962.249023	283.147095
3053.736543	5961.720833	1961.277344	156.580902
3053.736543	5961.720833	1960.306641	273.356232
3053.736543	5961.720833	1959.334961	237.247208
3053.736543	5961.720833	1958.363281	223.004990
3053.736543	5961.720833	1957.391602	206.039841
3053.736543	5961.720833	1956.419922	405.211792
3053.736543	5961.720833	1955.447266	289.388977
3053.736543	5961.720833	1954.474609	252.043533
3053.736543	5961.720833	1953.501953	455.340790
3053.736543	5961.720833	1952.529297	-0.118881
3053.736543	5961.720833	1951.556641	146.277252
3053.736543	5961.720833	1950.583984	186.840622
3053.736543	5961.720833	1949.610352	323.003082
3053.736543	5961.720833	1948.636719	208.542130
3053.736543	5961.720833	1947.663086	-16.466425
3053.736543	5961.720833	1946.689453	84.917191
3053.736543	5961.720833	1945.715820	328.481903
3053.736543	5961.720833	1944.741211	297.077972
3053.736543	5961.720833	1943.767578	454.486359
3053.736543	5961.720833	1942.792969	89.381813
3053.736543	5961.720833	1941.818359	288.316315
3053.736543	5961.720833	1940.842773	28.676474
3053.736543	5961.720833	1939.868164	-12.753770
3053.736543	5961.720833	1938.892578	249.674118
3053.736543	5961.720833	1937.916992	24.389845
3053.736543	5961.720833	1936.941406	7.401785
3053.736543	5961.720833	1935.965820	10.007067
3053.736543	5961.720833	1934.990234	122.809120
3053.736543	5961.720833	1934.013672	135.186340
3053.736543	5961.720833	1933.037109	101.062958
3053.736543	5961.720833	1932.060547	35.155769
3053.736543	5961.720833	1931.083984	35.371662
3053.736543	5961.720833	1930.107422	177.520554
3053.736543	5961.720833	1929.129883	99.501976
3053.736543	5961.720833	1928.153320	126.727760
3053.736543	5961.720833	1927.175781	92.857719
3053.736543	5961.720833	1926.198242	-65.623619
3053.736543	5961.720833	1925.219727	152.425583
3053.736543	5961.720833	1924.242188	72.320908
3053.736543	5961.720833	1923.263672	-100.538162
3053.736543	5961.720833	1922.285156	41.876564
3053.736543	5961.720833	1921.306641	-74.583450
3053.736543	5961.720833	1920.328125	-71.260345
3053.736543	5961.720833	1919.349609	37.132427
3053.736543	5961.720833	1918.370117	165.095871
3053.736543	5961.720833	1917.391602	-234.066010
3053.736543	5961.720833	1916.412109	-323.089996
3053.736543	5961.720833	1915.431641	51.555977
3053.736543	5961.720833	1914.452148	-151.937683
3053.736543	5961.720833	1913.472656	-204.048355
3053.736543	5961.720833	1912.492188	-34.152672
3053.736543	5961.720833	1911.511719	-117.757111
3053.736543	5961.720833	1910.531250	300.887787
3053.736543	5961.720833	1909.550781	-45.728451
3053.736543	5961.720833	1908.569336	7.479115
3053.736543	5961.720833	1907.588867	12.058437
3053.736543	5961.720833	1906.607422	-107.475143
3053.736543	5961.720833	1905.625977	4.487314
3053.736543	5961.720833	1904.644531	55.651230
3053.736543	5961.720833	1903.662109	-136.521774
3053.736543	5961.720833	1902.680664	216.662704
3053.736543	5961.720833	1901.698242	148.854095
3053.736543	5961.720833	1900.715820	-293.481628
3053.736543	5961.720833	1899.733398	-197.974808
3053.736543	5961.720833	1898.750000	-126.716743
3053.736543	5961.720833	1897.767578	-142.906509
3053.736543	5961.720833	1896.784180	23.343979
3053.736543	5961.720833	1895.800781	-123.907784
3053.736543	5961.720833	1894.817383	-132.479355
3053.736543	5961.720833	1893.833984	-97.206963
3053.736543	5961.720833	1892.850586	-27.834188
3053.736543	5961.720833	1891.866211	-189.123428
3053.736543	5961.720833	1890.881836	-121.987091
3053.736543	5961.720833	1889.897461	-64.487488
3053.736543	5961.720833	1888.913086	22.217274
3053.736543	5961.720833	1887.927734	-111.871567
3053.736543	5961.720833	1886.943359	-29.854164
3053.736543	5961.720833	1885.958008	35.240593
3053.736543	5961.720833	1884.972656	-47.562485
3053.736543	5961.720833	1883.987305	61.340691
3053.736543	5961.720833	1883.001953	-55.209557
3053.736543	5961.720833	1882.015625	24.728401
3053.736543	5961.720833	1881.029297	-157.054749
3053.736543	5961.720833	1880.042969	-103.627136
3053.736543	5961.720833	1879.056641	117.034813
3053.736543	5961.720833	1878.070313	-154.068817
3053.736543	5961.720833	1877.083984	78.769981
3053.736543	5961.720833	1876.096680	154.186157
3053.736543	5961.720833	1875.109375	-82.681877
3053.736543	5961.720833	1874.122070	-19.243507
3053.736543	5961.720833	1873.134766	-185.688446
3053.736543	5961.720833	1872.146484	-209.256775
3053.736543	5961.720833	1871.159180	-210.989822
3053.736543	5961.720833	1870.170898	87.254601
3053.736543	5961.720833	1869.182617	220.983322
3053.736543	5961.720833	1868.194336	163.687027
3053.736543	5961.720833	1867.205078	-290.014069
3053.736543	5961.720833	1866.216797	29.927879
3053.736543	5961.720833	1865.227539	54.959900
3053.736543	5961.720833	1864.238281	89.673363
3053.736543	5961.720833	1863.249023	73.667130
3053.736543	5961.720833	1862.259766	-137.944336
3053.736543	5961.720833	1861.269531	-4.157112
3053.736543	5961.720833	1860.279297	197.191223
3053.736543	5961.720833	1859.290039	-161.533890
3053.736543	5961.720833	1858.298828	254.567657
3053.736543	5961.720833	1857.308594	-53.361122
3053.736543	5961.720833	1856.318359	-103.044937
3053.736543	5961.720833	1855.327148	122.249504
3053.736543	5961.720833	1854.335938	-96.279457
3053.736543	5961.720833	1853.344727	34.868168
3053.736543	5961.720833	1852.353516	-125.742233
3053.736543	5961.720833	1851.362305	215.003555
3053.736543	5961.720833	1850.370117	206.180450
3053.736543	5961.720833	1849.377930	91.319801
3053.736543	5961.720833	1848.385742	207.714508
3053.736543	5961.720833	1847.393555	-109.484138
3053.736543	5961.720833	1846.401367	-79.865082
3053.736543	5961.720833	1845.408203	36.363155
3053.736543	5961.720833	1844.415039	354.685211
3053.736543	5961.720833	1843.421875	102.473053
3053.736543	5961.720833	1842.428711	28.349684
3053.736543	5961.720833	1841.435547	156.265213
3053.736543	5961.720833	1840.441406	120.508881
3053.736543	5961.720833	1839.448242	19.766619
3053.736543	5961.720833	1838.454102	29.582733
3053.736543	5961.720833	1837.459961	106.622963
3053.736543	5961.720833	1836.464844	106.639175
3053.736543	5961.720833	1835.470703	267.566956
3053.736543	5961.720833	1834.475586	-198.712051
3053.736543	5961.720833	1833.480469	142.175262
3053.736543	5961.720833	1832.485352	211.454529
3053.736543	5961.720833	1831.490234	379.050629
3053.736543	5961.720833	1830.495117	359.222412
3053.736543	5961.720833	1829.499023	173.670441
3053.736543	5961.720833	1828.502930	355.240082
3053.736543	5961.720833	1827.506836	87.946144
3053.736543	5961.720833	1826.510742	257.226318
3053.736543	5961.720833	1825.513672	205.657669
3053.736543	5961.720833	1824.517578	173.163712
3053.736543	5961.720833	1823.520508	75.812408
3053.736543	5961.720833	1822.523438	-52.803902
3053.736543	5961.720833	1821.526367	242.689133
3053.736543	5961.720833	1820.529297	267.158081
3053.736543	5961.720833	1819.531250	-65.497345
3053.736543	5961.720833	1818.533203	171.893005
3053.736543	5961.720833	1817.535156	471.302246
3053.736543	5961.720833	1816.537109	351.425171
3053.736543	5961.720833	1815.539063	329.580719
3053.736543	5961.720833	1814.540039	-68.199196
3053.736543	5961.720833	1813.541992	194.473358
3053.736543	5961.720833	1812.542969	121.912529
3053.736543	5961.720833	1811.543945	3.750752
3053.736543	5961.720833	1810.543945	150.921768
3053.736543	5961.720833	1809.544922	-60.820724
3053.736543	5961.720833	1808.544922	427.811829
3053.736543	5961.720833	1807.544922	177.470245
3053.736543	5961.720833	1806.544922	211.420090
3053.736543	5961.720833	1805.544922	335.958191
3053.736543	5961.720833	1804.544922	316.913696
3053.736543	5961.720833	1803.543945	381.264221
3053.736543	5961.720833	1802.542969	352.252625
3053.736543	5961.720833	1801.541992	215.600708
3053.736543	5961.720833	1800.541016	-21.468660
3053.736543	5961.720833	1799.539063	96.944405
3053.736543	5961.720833	1798.538086	212.717468
3053.736543	5961.720833	1797.536133	113.499565
3053.736543	5961.720833	1796.534180	16.482260
3053.736543	5961.720833	1795.532227	200.692368
3053.736543	5961.720833	1794.529297	265.374664
3053.736543	5961.720833	1793.527344	67.575081
3053.736543	5961.720833	1792.524414	-20.749653
3053.736543	5961.720833	1791.521484	155.243744
3053.736543	5961.720833	1790.518555	37.872375
3053.736543	5961.720833	1789.514648	299.059845
3053.736543	5961.720833	1788.511719	150.260834
3053.736543	5961.720833	1787.507813	113.183975
3053.736543	5961.720833	1786.503906	394.902466
3053.736543	5961.720833	1785.500000	62.133060
3053.736543	5961.720833	1784.496094	283.757660
3053.736543	5961.720833	1783.491211	93.388245
3053.736543	5961.720833	1782.486328	195.453613
3053.736543	5961.720833	1781.481445	95.046761
3053.736543	5961.720833	1780.476563	148.996078
3053.736543	5961.720833	1779.471680	155.110489
3053.736543	5961.720833	1778.465820	132.422852
3053.736543	5961.720833	1777.460938	385.194550
3053.736543	5961.720833	1776.455078	352.436096
3053.736543	5961.720833	1775.449219	257.650726
3053.736543	5961.720833	1774.442383	93.733765
3053.736543	5961.720833	1773.436523	259.738892
3053.736543	5961.720833	1772.429688	304.295929
3053.736543	5961.720833	1771.422852	123.028465
3053.736543	5961.720833	1770.416016	36.499809
3053.736543	5961.720833	1769.409180	54.146400
3053.736543	5961.720833	1768.402344	235.225037
3053.736543	5961.720833	1767.394531	325.796631
3053.736543	5961.720833	1766.386719	209.708069
3053.736543	5961.720833	1765.378906	233.293427
3053.736543	5961.720833	1764.371094	12.386892
3053.736543	5961.720833	1763.362305	111.274139
3053.736543	5961.720833	1762.354492	141.127533
3053.736543	5961.720833	1761.345703	165.931061
3053.736543	5961.720833	1760.336914	-115.172501
3053.736543	5961.720833	1759.328125	105.696190
3053.736543	5961.720833	1758.318359	136.722137
3053.736543	5961.720833	1757.308594	139.037338
3053.736543	5961.720833	1756.299805	36.921383
3053.736543	5961.720833	1755.290039	272.995056
3053.736543	5961.720833	1754.279297	264.935028
3053.736543	5961.720833	1753.269531	318.123169
3053.736543	5961.720833	1752.258789	-50.073204
3053.736543	5961.720833	1751.249023	-207.911697
3053.736543	5961.720833	1750.238281	-181.561066
3053.736543	5961.720833	1749.226563	28.871479
3053.736543	5961.720833	1748.215820	-146.325943
3053.736543	5961.720833	1747.204102	68.166672
3053.736543	5961.720833	1746.193359	183.071259
3053.736543	5961.720833	1745.181641	25.954901
3053.736543	5961.720833	1744.168945	152.011444
3053.736543	5961.720833	1743.157227	72.308350
3053.736543	5961.720833	1742.144531	-83.226448
3053.736543	5961.720833	1741.132813	268.544067
3053.736543	5961.720833	1740.120117	289.458923
3053.736543	5961.720833	1739.106445	62.294319
3053.736543	5961.720833	1738.093750	21.325733
3053.736543	5961.720833	1737.080078	121.586090
3053.736543	5961.720833	1736.067383	113.063980
3053.736543	5961.720833	1735.053711	156.107773
3053.736543	5961.720833	1734.040039	116.341263
3053.736543	5961.720833	1733.025391	29.142326
3053.736543	5961.720833	1732.011719	106.669846
3053.736543	5961.720833	1730.997070	-202.527573
3053.736543	5961.720833	1729.982422	105.269852
3053.736543	5961.720833	1728.967773	-279.737549
3053.736543	5961.720833	1727.952148	-201.033310
3053.736543	5961.720833	1726.937500	-51.986938
3053.736543	5961.720833	1725.921875	-11.575642
3053.736543	5961.720833	1724.906250	-202.082947
3053.736543	5961.720833	1723.890625	-35.157890
3053.736543	5961.720833	1722.875000	-84.993423
3053.736543	5961.720833	1721.858398	-76.312614
3053.736543	5961.720833	1720.841797	75.534836
3053.736543	5961.720833	1719.825195	-59.778645
3053.736543	5961.720833	1718.808594	-70.726082
3053.736543	5961.720833	1717.791992	-86.638855
3053.736543	5961.720833	1716.774414	113.333160
3053.736543	5961.720833	1715.756836	-55.873089
3053.736543	5961.720833	1714.739258	-168.906235
3053.736543	5961.720833	1713.721680	-129.515457
3053.736543	5961.720833	1712.704102	-59.876656
3053.736543	5961.720833	1711.685547	-63.326202
3053.736543	5961.720833	1710.667969	-104.552078
3053.736543	5961.720833	1709.649414	-237.565994
3053.736543	5961.720833	1708.630859	-293.359711
3053.736543	5961.720833	1707.611328	-316.575073
3053.736543	5961.720833	1706.592773	-290.752502
3053.736543	5961.720833	1705.573242	-138.599716
3053.736543	5961.720833	1704.553711	-164.919922
3053.736543	5961.720833	1703.534180	-212.570251
3053.736543	5961.720833	1702.513672	107.441315
3053.736543	5961.720833	1701.494141	-39.128338
3053.736543	5961.720833	1700.473633	-66.444031
3053.736543	5961.720833	1699.453125	-164.245117
3053.736543	5961.720833	1698.432617	-46.814365
3053.736543	5961.720833	1697.412109	-353.413025
3053.736543	5961.720833	1696.390625	-14.114521
3053.736543	5961.720833	1695.369141	121.223587
3053.736543	5961.720833	1694.347656	146.312851
3053.736543	5961.720833	1693.326172	168.831604
3053.736543	5961.720833	1692.304688	104.581306
3053.736543	5961.720833	1691.282227	26.075548
3053.736543	5961.720833	1690.260742	-59.595753
3053.736543	5961.720833	1689.238281	43.865292
3053.736543	5961.720833	1688.214844	-103.031326
3053.736543	5961.720833	1687.192383	-259.389801
3053.736543	5961.720833	1686.168945	84.028198
3053.736543	5961.720833	1685.146484	163.201263
3053.736543	5961.720833	1684.123047	-0.761880
3053.736543	5961.720833	1683.099609	236.740982
3053.736543	5961.720833	1682.075195	98.081497
3053.736543	5961.720833	1681.051758	97.024963
3053.736543	5961.720833	1680.027344	63.075321
3053.736543	5961.720833	1679.002930	150.275040
3053.736543	5961.720833	1677.978516	393.545105
3053.736543	5961.720833	1676.953125	286.680298
3053.736543	5961.720833	1675.928711	163.394974
3053.736543	5961.720833	1674.903320	527.183777
3053.736543	5961.720833	1673.877930	189.084244
3053.736543	5961.720833	1672.852539	296.048737
3053.736543	5961.720833	1671.826172	302.586273
3053.736543	5961.720833	1670.800781	290.360016
3053.736543	5961.720833	1669.774414	452.621155
3053.736543	5961.720833	1668.748047	677.538879
3053.736543	5961.720833	1667.721680	813.747314
3053.736543	5961.720833	1666.694336	756.518677
3053.736543	5961.720833	1665.667969	1013.382629
3053.736543	5961.720833	1664.640625	688.270935
3053.736543	5961.720833	1663.613281	851.675781
3053.736543	5961.720833	1662.585938	996.276306
3053.736543	5961.720833	1661.557617	1149.951538
3053.736543	5961.720833	1660.530273	943.101807
3053.736543	5961.720833	1659.501953	1198.753296
3053.736543	5961.720833	1658.473633	1179.939941
3053.736543	5961.720833	1657.444336	1521.141968
3053.736543	5961.720833	1656.416016	1748.297852
3053.736543	5961.720833	1655.386719	1633.768799
3053.736543	5961.720833	1654.358398	1767.702393
3053.736543	5961.720833	1653.328125	1620.456055
3053.736543	5961.720833	1652.298828	1763.378540
3053.736543	5961.720833	1651.269531	1804.024292
3053.736543	5961.720833	1650.239258	2085.851563
3053.736543	5961.720833	1649.208984	1961.469727
3053.736543	5961.720833	1648.178711	1990.141846
3053.736543	5961.720833	1647.148438	2102.205322
3053.736543	5961.720833	1646.117188	2473.802246
3053.736543	5961.720833	1645.086914	2251.741455
3053.736543	5961.720833	1644.055664	2479.306885
3053.736543	5961.720833	1643.024414	2512.055420
3053.736543	5961.720833	1641.992188	2354.696777
3053.736543	5961.720833	1640.960938	2811.237793
3053.736543	5961.720833	1639.928711	3070.639893
3053.736543	5961.720833	1638.896484	2899.190430
3053.736543	5961.720833	1637.864258	3343.574707
3053.736543	5961.720833	1636.832031	3116.483643
3053.736543	5961.720833	1635.798828	3354.551025
3053.736543	5961.720833	1634.766602	3539.307373
3053.736543	5961.720833	1633.733398	3603.622070
3053.736543	5961.720833	1632.699219	3938.439697
3053.736543	5961.720833	1631.666016	4048.832520
3053.736543	5961.720833	1630.632813	4034.306641
3053.736543	5961.720833	1629.598633	4026.656250
3053.736543	5961.720833	1628.564453	4190.006836
3053.736543	5961.720833	1627.530273	4263.162598
3053.736543	5961.720833	1626.495117	4363.958008
3053.736543	5961.720833	1625.460938	4591.780273
3053.736543	5961.720833	1624.425781	4530.804688
3053.736543	5961.720833	1623.390625	4555.279297
3053.736543	5961.720833	1622.355469	4508.183105
3053.736543	5961.720833	1621.319336	4703.403320
3053.736543	5961.720833	1620.284180	4757.837891
3053.736543	5961.720833	1619.248047	4766.083984
3053.736543	5961.720833	1618.211914	4665.930176
3053.736543	5961.720833	1617.174805	4890.960449
3053.736543	5961.720833	1616.138672	4737.833008
3053.736543	5961.720833	1615.101563	4637.770020
3053.736543	5961.720833	1614.065430	4606.958496
3053.736543	5961.720833	1613.027344	4638.332031
3053.736543	5961.720833	1611.990234	4904.766113
3053.736543	5961.720833	1610.953125	4717.356934
3053.736543	5961.720833	1609.915039	4944.564941
3053.736543	5961.720833	1608.876953	4727.338867
3053.736543	5961.720833	1607.838867	4991.388672
3053.736543	5961.720833	1606.800781	4868.710449
3053.736543	5961.720833	1605.761719	4833.547363
3053.736543	5961.720833	1604.723633	4842.209961
3053.736543	5961.720833	1603.684570	4965.913086
3053.736543	5961.720833	1602.644531	4986.102539
3053.736543	5961.720833	1601.605469	5128.263184
3053.736543	5961.720833	1600.566406	4854.333984
3053.736543	5961.720833	1599.526367	5031.058594
3053.736543	5961.720833	1598.486328	5010.165039
3053.736543	5961.720833	1597.446289	5338.599609
3053.736543	5961.720833	1596.405273	4970.919922
3053.736543	5961.720833	1595.365234	5113.383301
3053.736543	5961.720833	1594.324219	5584.215332
3053.736543	5961.720833	1593.283203	5191.737793
3053.736543	5961.720833	1592.242188	5249.408203
3053.736543	5961.720833	1591.200195	5651.362305
3053.736543	5961.720833	1590.159180	5234.181152
3053.736543	5961.720833	1589.117188	5312.747559
3053.736543	5961.720833	1588.075195	5563.416992
3053.736543	5961.720833	1587.032227	5353.153320
3053.736543	5961.720833	1585.990234	5264.644043
3053.736543	5961.720833	1584.947266	4988.296875
3053.736543	5961.720833	1583.904297	5154.500977
3053.736543	5961.720833	1582.861328	5155.799316
3053.736543	5961.720833	1581.818359	4740.290527
3053.736543	5961.720833	1580.775391	5028.249023
3053.736543	5961.720833	1579.731445	4787.212402
3053.736543	5961.720833	1578.687500	4876.112305
3053.736543	5961.720833	1577.643555	4612.604492
3053.736543	5961.720833	1576.598633	4816.201660
