#X		#Y		#Wave		#Intensity
13309.119043	3903.741000	1999.980469	-7.457216
13309.119043	3903.741000	1999.016602	-10.945848
13309.119043	3903.741000	1998.052734	268.870453
13309.119043	3903.741000	1997.087891	141.942719
13309.119043	3903.741000	1996.123047	-180.897186
13309.119043	3903.741000	1995.158203	147.671631
13309.119043	3903.741000	1994.193359	-81.359146
13309.119043	3903.741000	1993.228516	100.557152
13309.119043	3903.741000	1992.262695	84.146667
13309.119043	3903.741000	1991.297852	-66.118950
13309.119043	3903.741000	1990.332031	-30.890064
13309.119043	3903.741000	1989.366211	31.369267
13309.119043	3903.741000	1988.399414	-109.430038
13309.119043	3903.741000	1987.433594	63.796875
13309.119043	3903.741000	1986.466797	29.065668
13309.119043	3903.741000	1985.500977	98.044586
13309.119043	3903.741000	1984.534180	142.132172
13309.119043	3903.741000	1983.567383	-43.804333
13309.119043	3903.741000	1982.599609	32.146263
13309.119043	3903.741000	1981.632813	110.409683
13309.119043	3903.741000	1980.665039	-73.332954
13309.119043	3903.741000	1979.697266	-2.729968
13309.119043	3903.741000	1978.729492	65.264320
13309.119043	3903.741000	1977.761719	212.131485
13309.119043	3903.741000	1976.792969	-6.496012
13309.119043	3903.741000	1975.825195	177.148056
13309.119043	3903.741000	1974.856445	0.364329
13309.119043	3903.741000	1973.887695	43.129475
13309.119043	3903.741000	1972.918945	184.459167
13309.119043	3903.741000	1971.949219	-155.252960
13309.119043	3903.741000	1970.980469	-28.890701
13309.119043	3903.741000	1970.010742	-99.871147
13309.119043	3903.741000	1969.041016	38.616253
13309.119043	3903.741000	1968.071289	149.879105
13309.119043	3903.741000	1967.101563	246.256195
13309.119043	3903.741000	1966.130859	39.534161
13309.119043	3903.741000	1965.161133	86.524200
13309.119043	3903.741000	1964.190430	66.957283
13309.119043	3903.741000	1963.219727	76.895180
13309.119043	3903.741000	1962.249023	-122.452255
13309.119043	3903.741000	1961.277344	67.096420
13309.119043	3903.741000	1960.306641	3.085783
13309.119043	3903.741000	1959.334961	-38.794636
13309.119043	3903.741000	1958.363281	7.861414
13309.119043	3903.741000	1957.391602	15.121728
13309.119043	3903.741000	1956.419922	120.708298
13309.119043	3903.741000	1955.447266	39.391209
13309.119043	3903.741000	1954.474609	-2.589041
13309.119043	3903.741000	1953.501953	-5.251919
13309.119043	3903.741000	1952.529297	68.238487
13309.119043	3903.741000	1951.556641	43.424061
13309.119043	3903.741000	1950.583984	-77.181229
13309.119043	3903.741000	1949.610352	79.738998
13309.119043	3903.741000	1948.636719	-13.838813
13309.119043	3903.741000	1947.663086	74.265572
13309.119043	3903.741000	1946.689453	-9.467384
13309.119043	3903.741000	1945.715820	29.521303
13309.119043	3903.741000	1944.741211	279.487091
13309.119043	3903.741000	1943.767578	109.910683
13309.119043	3903.741000	1942.792969	50.762009
13309.119043	3903.741000	1941.818359	-113.796478
13309.119043	3903.741000	1940.842773	-50.292789
13309.119043	3903.741000	1939.868164	-65.238213
13309.119043	3903.741000	1938.892578	64.418961
13309.119043	3903.741000	1937.916992	-21.579014
13309.119043	3903.741000	1936.941406	-127.130318
13309.119043	3903.741000	1935.965820	159.256470
13309.119043	3903.741000	1934.990234	305.968201
13309.119043	3903.741000	1934.013672	190.663956
13309.119043	3903.741000	1933.037109	156.200409
13309.119043	3903.741000	1932.060547	38.553085
13309.119043	3903.741000	1931.083984	38.424995
13309.119043	3903.741000	1930.107422	57.887756
13309.119043	3903.741000	1929.129883	-10.696581
13309.119043	3903.741000	1928.153320	343.861237
13309.119043	3903.741000	1927.175781	50.334797
13309.119043	3903.741000	1926.198242	-167.273849
13309.119043	3903.741000	1925.219727	3.859151
13309.119043	3903.741000	1924.242188	174.951981
13309.119043	3903.741000	1923.263672	121.214661
13309.119043	3903.741000	1922.285156	-42.408600
13309.119043	3903.741000	1921.306641	-66.727531
13309.119043	3903.741000	1920.328125	77.484718
13309.119043	3903.741000	1919.349609	60.526249
13309.119043	3903.741000	1918.370117	-22.310518
13309.119043	3903.741000	1917.391602	63.313004
13309.119043	3903.741000	1916.412109	29.360790
13309.119043	3903.741000	1915.431641	75.956032
13309.119043	3903.741000	1914.452148	7.915552
13309.119043	3903.741000	1913.472656	-23.491837
13309.119043	3903.741000	1912.492188	-57.301445
13309.119043	3903.741000	1911.511719	-147.144562
13309.119043	3903.741000	1910.531250	4.377600
13309.119043	3903.741000	1909.550781	238.725311
13309.119043	3903.741000	1908.569336	-48.406303
13309.119043	3903.741000	1907.588867	3.208585
13309.119043	3903.741000	1906.607422	3.680082
13309.119043	3903.741000	1905.625977	9.045467
13309.119043	3903.741000	1904.644531	-109.737114
13309.119043	3903.741000	1903.662109	-174.898392
13309.119043	3903.741000	1902.680664	-171.866241
13309.119043	3903.741000	1901.698242	152.388931
13309.119043	3903.741000	1900.715820	-24.630524
13309.119043	3903.741000	1899.733398	-14.264490
13309.119043	3903.741000	1898.750000	59.350510
13309.119043	3903.741000	1897.767578	42.991783
13309.119043	3903.741000	1896.784180	-21.962355
13309.119043	3903.741000	1895.800781	-47.982483
13309.119043	3903.741000	1894.817383	110.717377
13309.119043	3903.741000	1893.833984	169.759109
13309.119043	3903.741000	1892.850586	-60.285721
13309.119043	3903.741000	1891.866211	23.087431
13309.119043	3903.741000	1890.881836	111.301315
13309.119043	3903.741000	1889.897461	192.215027
13309.119043	3903.741000	1888.913086	-74.010605
13309.119043	3903.741000	1887.927734	-27.042940
13309.119043	3903.741000	1886.943359	-33.463242
13309.119043	3903.741000	1885.958008	-73.834480
13309.119043	3903.741000	1884.972656	-111.753166
13309.119043	3903.741000	1883.987305	-108.419891
13309.119043	3903.741000	1883.001953	18.581440
13309.119043	3903.741000	1882.015625	14.634177
13309.119043	3903.741000	1881.029297	168.243256
13309.119043	3903.741000	1880.042969	-155.598602
13309.119043	3903.741000	1879.056641	-4.426092
13309.119043	3903.741000	1878.070313	32.839417
13309.119043	3903.741000	1877.083984	53.141254
13309.119043	3903.741000	1876.096680	80.702568
13309.119043	3903.741000	1875.109375	45.307457
13309.119043	3903.741000	1874.122070	-147.414734
13309.119043	3903.741000	1873.134766	148.809341
13309.119043	3903.741000	1872.146484	-39.022301
13309.119043	3903.741000	1871.159180	143.360672
13309.119043	3903.741000	1870.170898	-54.080822
13309.119043	3903.741000	1869.182617	96.789764
13309.119043	3903.741000	1868.194336	-81.236664
13309.119043	3903.741000	1867.205078	57.482342
13309.119043	3903.741000	1866.216797	123.631195
13309.119043	3903.741000	1865.227539	-114.737518
13309.119043	3903.741000	1864.238281	23.881910
13309.119043	3903.741000	1863.249023	58.565971
13309.119043	3903.741000	1862.259766	28.014208
13309.119043	3903.741000	1861.269531	21.607250
13309.119043	3903.741000	1860.279297	-11.369407
13309.119043	3903.741000	1859.290039	131.859543
13309.119043	3903.741000	1858.298828	4.719893
13309.119043	3903.741000	1857.308594	-47.590504
13309.119043	3903.741000	1856.318359	-66.126137
13309.119043	3903.741000	1855.327148	-41.259434
13309.119043	3903.741000	1854.335938	84.860603
13309.119043	3903.741000	1853.344727	104.821671
13309.119043	3903.741000	1852.353516	23.503927
13309.119043	3903.741000	1851.362305	-2.375049
13309.119043	3903.741000	1850.370117	-35.500317
13309.119043	3903.741000	1849.377930	-90.324478
13309.119043	3903.741000	1848.385742	102.952545
13309.119043	3903.741000	1847.393555	40.837391
13309.119043	3903.741000	1846.401367	10.017362
13309.119043	3903.741000	1845.408203	101.957153
13309.119043	3903.741000	1844.415039	34.964554
13309.119043	3903.741000	1843.421875	32.939270
13309.119043	3903.741000	1842.428711	88.624763
13309.119043	3903.741000	1841.435547	283.781097
13309.119043	3903.741000	1840.441406	202.224838
13309.119043	3903.741000	1839.448242	214.444321
13309.119043	3903.741000	1838.454102	19.848246
13309.119043	3903.741000	1837.459961	70.475624
13309.119043	3903.741000	1836.464844	17.693182
13309.119043	3903.741000	1835.470703	159.526199
13309.119043	3903.741000	1834.475586	236.391357
13309.119043	3903.741000	1833.480469	176.262939
13309.119043	3903.741000	1832.485352	10.439596
13309.119043	3903.741000	1831.490234	7.907038
13309.119043	3903.741000	1830.495117	65.341888
13309.119043	3903.741000	1829.499023	50.695053
13309.119043	3903.741000	1828.502930	131.991837
13309.119043	3903.741000	1827.506836	280.385925
13309.119043	3903.741000	1826.510742	-55.904495
13309.119043	3903.741000	1825.513672	77.965317
13309.119043	3903.741000	1824.517578	-56.843937
13309.119043	3903.741000	1823.520508	-19.040594
13309.119043	3903.741000	1822.523438	21.085577
13309.119043	3903.741000	1821.526367	118.655609
13309.119043	3903.741000	1820.529297	211.333984
13309.119043	3903.741000	1819.531250	169.753784
13309.119043	3903.741000	1818.533203	44.290512
13309.119043	3903.741000	1817.535156	48.129711
13309.119043	3903.741000	1816.537109	27.958370
13309.119043	3903.741000	1815.539063	168.118774
13309.119043	3903.741000	1814.540039	40.089897
13309.119043	3903.741000	1813.541992	24.513369
13309.119043	3903.741000	1812.542969	248.125900
13309.119043	3903.741000	1811.543945	-23.581730
13309.119043	3903.741000	1810.543945	113.711044
13309.119043	3903.741000	1809.544922	97.844673
13309.119043	3903.741000	1808.544922	-23.284487
13309.119043	3903.741000	1807.544922	-156.394302
13309.119043	3903.741000	1806.544922	21.149620
13309.119043	3903.741000	1805.544922	28.903530
13309.119043	3903.741000	1804.544922	62.854862
13309.119043	3903.741000	1803.543945	-37.042469
13309.119043	3903.741000	1802.542969	25.404249
13309.119043	3903.741000	1801.541992	221.452499
13309.119043	3903.741000	1800.541016	97.469185
13309.119043	3903.741000	1799.539063	128.582245
13309.119043	3903.741000	1798.538086	135.742325
13309.119043	3903.741000	1797.536133	11.594765
13309.119043	3903.741000	1796.534180	30.528624
13309.119043	3903.741000	1795.532227	-88.951454
13309.119043	3903.741000	1794.529297	-51.104561
13309.119043	3903.741000	1793.527344	70.084297
13309.119043	3903.741000	1792.524414	14.754834
13309.119043	3903.741000	1791.521484	-54.939255
13309.119043	3903.741000	1790.518555	3.965241
13309.119043	3903.741000	1789.514648	-61.118744
13309.119043	3903.741000	1788.511719	-42.904808
13309.119043	3903.741000	1787.507813	-29.554783
13309.119043	3903.741000	1786.503906	95.596748
13309.119043	3903.741000	1785.500000	84.927635
13309.119043	3903.741000	1784.496094	181.265427
13309.119043	3903.741000	1783.491211	87.111984
13309.119043	3903.741000	1782.486328	185.599930
13309.119043	3903.741000	1781.481445	-44.284920
13309.119043	3903.741000	1780.476563	180.039948
13309.119043	3903.741000	1779.471680	9.493947
13309.119043	3903.741000	1778.465820	14.823695
13309.119043	3903.741000	1777.460938	-1.331699
13309.119043	3903.741000	1776.455078	-53.226685
13309.119043	3903.741000	1775.449219	51.605122
13309.119043	3903.741000	1774.442383	94.533051
13309.119043	3903.741000	1773.436523	-85.893791
13309.119043	3903.741000	1772.429688	-93.018425
13309.119043	3903.741000	1771.422852	-131.102554
13309.119043	3903.741000	1770.416016	-31.604507
13309.119043	3903.741000	1769.409180	-126.842010
13309.119043	3903.741000	1768.402344	-84.528259
13309.119043	3903.741000	1767.394531	-111.132347
13309.119043	3903.741000	1766.386719	179.990814
13309.119043	3903.741000	1765.378906	-57.907051
13309.119043	3903.741000	1764.371094	33.737274
13309.119043	3903.741000	1763.362305	-12.247783
13309.119043	3903.741000	1762.354492	100.477242
13309.119043	3903.741000	1761.345703	130.115265
13309.119043	3903.741000	1760.336914	71.982979
13309.119043	3903.741000	1759.328125	23.244272
13309.119043	3903.741000	1758.318359	40.721317
13309.119043	3903.741000	1757.308594	122.017273
13309.119043	3903.741000	1756.299805	165.307953
13309.119043	3903.741000	1755.290039	165.868469
13309.119043	3903.741000	1754.279297	-75.054497
13309.119043	3903.741000	1753.269531	-93.585388
13309.119043	3903.741000	1752.258789	-1.044377
13309.119043	3903.741000	1751.249023	-154.599442
13309.119043	3903.741000	1750.238281	-45.740074
13309.119043	3903.741000	1749.226563	39.324474
13309.119043	3903.741000	1748.215820	10.801858
13309.119043	3903.741000	1747.204102	29.442297
13309.119043	3903.741000	1746.193359	156.664810
13309.119043	3903.741000	1745.181641	-28.100061
13309.119043	3903.741000	1744.168945	-16.873047
13309.119043	3903.741000	1743.157227	-211.190536
13309.119043	3903.741000	1742.144531	-126.953583
13309.119043	3903.741000	1741.132813	-167.952087
13309.119043	3903.741000	1740.120117	-152.406784
13309.119043	3903.741000	1739.106445	68.305229
13309.119043	3903.741000	1738.093750	-72.116013
13309.119043	3903.741000	1737.080078	-38.050999
13309.119043	3903.741000	1736.067383	10.054232
13309.119043	3903.741000	1735.053711	-125.882332
13309.119043	3903.741000	1734.040039	-70.922874
13309.119043	3903.741000	1733.025391	-70.307808
13309.119043	3903.741000	1732.011719	-13.232340
13309.119043	3903.741000	1730.997070	116.745232
13309.119043	3903.741000	1729.982422	13.367860
13309.119043	3903.741000	1728.967773	18.262827
13309.119043	3903.741000	1727.952148	96.038940
13309.119043	3903.741000	1726.937500	53.626045
13309.119043	3903.741000	1725.921875	201.773560
13309.119043	3903.741000	1724.906250	46.183983
13309.119043	3903.741000	1723.890625	36.429981
13309.119043	3903.741000	1722.875000	181.839142
13309.119043	3903.741000	1721.858398	162.442627
13309.119043	3903.741000	1720.841797	131.195343
13309.119043	3903.741000	1719.825195	-31.798725
13309.119043	3903.741000	1718.808594	84.892540
13309.119043	3903.741000	1717.791992	72.180771
13309.119043	3903.741000	1716.774414	24.119247
13309.119043	3903.741000	1715.756836	133.378220
13309.119043	3903.741000	1714.739258	24.056862
13309.119043	3903.741000	1713.721680	95.505356
13309.119043	3903.741000	1712.704102	138.653946
13309.119043	3903.741000	1711.685547	137.077042
13309.119043	3903.741000	1710.667969	191.743759
13309.119043	3903.741000	1709.649414	171.193817
13309.119043	3903.741000	1708.630859	59.057194
13309.119043	3903.741000	1707.611328	92.290787
13309.119043	3903.741000	1706.592773	19.893785
13309.119043	3903.741000	1705.573242	111.553711
13309.119043	3903.741000	1704.553711	149.167526
13309.119043	3903.741000	1703.534180	170.267181
13309.119043	3903.741000	1702.513672	149.074860
13309.119043	3903.741000	1701.494141	280.105316
13309.119043	3903.741000	1700.473633	223.582382
13309.119043	3903.741000	1699.453125	115.465057
13309.119043	3903.741000	1698.432617	154.824417
13309.119043	3903.741000	1697.412109	107.457123
13309.119043	3903.741000	1696.390625	57.667988
13309.119043	3903.741000	1695.369141	61.638016
13309.119043	3903.741000	1694.347656	114.657097
13309.119043	3903.741000	1693.326172	167.571747
13309.119043	3903.741000	1692.304688	103.435555
13309.119043	3903.741000	1691.282227	18.181902
13309.119043	3903.741000	1690.260742	119.933807
13309.119043	3903.741000	1689.238281	102.335464
13309.119043	3903.741000	1688.214844	-188.793106
13309.119043	3903.741000	1687.192383	-159.752258
13309.119043	3903.741000	1686.168945	107.480713
13309.119043	3903.741000	1685.146484	-78.594406
13309.119043	3903.741000	1684.123047	120.639565
13309.119043	3903.741000	1683.099609	-23.505468
13309.119043	3903.741000	1682.075195	2.728570
13309.119043	3903.741000	1681.051758	-181.166763
13309.119043	3903.741000	1680.027344	-68.719299
13309.119043	3903.741000	1679.002930	29.613661
13309.119043	3903.741000	1677.978516	-72.770409
13309.119043	3903.741000	1676.953125	-98.236748
13309.119043	3903.741000	1675.928711	-102.763809
13309.119043	3903.741000	1674.903320	-4.795062
13309.119043	3903.741000	1673.877930	135.022141
13309.119043	3903.741000	1672.852539	-268.260376
13309.119043	3903.741000	1671.826172	-61.024681
13309.119043	3903.741000	1670.800781	-44.937103
13309.119043	3903.741000	1669.774414	96.833771
13309.119043	3903.741000	1668.748047	31.243464
13309.119043	3903.741000	1667.721680	184.461029
13309.119043	3903.741000	1666.694336	188.572906
13309.119043	3903.741000	1665.667969	-44.740925
13309.119043	3903.741000	1664.640625	189.647339
13309.119043	3903.741000	1663.613281	102.851723
13309.119043	3903.741000	1662.585938	302.118469
13309.119043	3903.741000	1661.557617	103.587547
13309.119043	3903.741000	1660.530273	195.718735
13309.119043	3903.741000	1659.501953	83.185318
13309.119043	3903.741000	1658.473633	347.147491
13309.119043	3903.741000	1657.444336	315.838806
13309.119043	3903.741000	1656.416016	409.960663
13309.119043	3903.741000	1655.386719	394.811981
13309.119043	3903.741000	1654.358398	305.323853
13309.119043	3903.741000	1653.328125	313.312439
13309.119043	3903.741000	1652.298828	516.264709
13309.119043	3903.741000	1651.269531	480.037231
13309.119043	3903.741000	1650.239258	515.700256
13309.119043	3903.741000	1649.208984	548.988647
13309.119043	3903.741000	1648.178711	765.472900
13309.119043	3903.741000	1647.148438	745.280273
13309.119043	3903.741000	1646.117188	738.953552
13309.119043	3903.741000	1645.086914	758.109131
13309.119043	3903.741000	1644.055664	784.160339
13309.119043	3903.741000	1643.024414	958.478149
13309.119043	3903.741000	1641.992188	905.621704
13309.119043	3903.741000	1640.960938	878.251648
13309.119043	3903.741000	1639.928711	1089.394531
13309.119043	3903.741000	1638.896484	1122.128174
13309.119043	3903.741000	1637.864258	807.553650
13309.119043	3903.741000	1636.832031	1023.133118
13309.119043	3903.741000	1635.798828	1178.417969
13309.119043	3903.741000	1634.766602	1199.435181
13309.119043	3903.741000	1633.733398	1201.899536
13309.119043	3903.741000	1632.699219	1125.687378
13309.119043	3903.741000	1631.666016	1331.615845
13309.119043	3903.741000	1630.632813	1169.841675
13309.119043	3903.741000	1629.598633	1359.447510
13309.119043	3903.741000	1628.564453	1456.521484
13309.119043	3903.741000	1627.530273	1380.244385
13309.119043	3903.741000	1626.495117	1334.000610
13309.119043	3903.741000	1625.460938	1518.749023
13309.119043	3903.741000	1624.425781	1567.152588
13309.119043	3903.741000	1623.390625	1592.437988
13309.119043	3903.741000	1622.355469	1816.226563
13309.119043	3903.741000	1621.319336	1876.040405
13309.119043	3903.741000	1620.284180	1552.799438
13309.119043	3903.741000	1619.248047	1771.816772
13309.119043	3903.741000	1618.211914	1448.697266
13309.119043	3903.741000	1617.174805	1432.402222
13309.119043	3903.741000	1616.138672	1785.038086
13309.119043	3903.741000	1615.101563	1775.598755
13309.119043	3903.741000	1614.065430	1858.372314
13309.119043	3903.741000	1613.027344	1772.869507
13309.119043	3903.741000	1611.990234	1747.320557
13309.119043	3903.741000	1610.953125	1795.497437
13309.119043	3903.741000	1609.915039	1721.588379
13309.119043	3903.741000	1608.876953	1709.886353
13309.119043	3903.741000	1607.838867	1831.719849
13309.119043	3903.741000	1606.800781	1573.744507
13309.119043	3903.741000	1605.761719	1759.998169
13309.119043	3903.741000	1604.723633	1833.472778
13309.119043	3903.741000	1603.684570	1952.923096
13309.119043	3903.741000	1602.644531	1743.450317
13309.119043	3903.741000	1601.605469	2049.158447
13309.119043	3903.741000	1600.566406	2113.376221
13309.119043	3903.741000	1599.526367	2186.768555
13309.119043	3903.741000	1598.486328	2179.721191
13309.119043	3903.741000	1597.446289	2478.283447
13309.119043	3903.741000	1596.405273	2625.124756
13309.119043	3903.741000	1595.365234	2496.343506
13309.119043	3903.741000	1594.324219	2668.435791
13309.119043	3903.741000	1593.283203	2631.570557
13309.119043	3903.741000	1592.242188	2615.407471
13309.119043	3903.741000	1591.200195	2491.405518
13309.119043	3903.741000	1590.159180	2298.665039
13309.119043	3903.741000	1589.117188	2408.830566
13309.119043	3903.741000	1588.075195	2379.079102
13309.119043	3903.741000	1587.032227	2349.362549
13309.119043	3903.741000	1585.990234	2475.610840
13309.119043	3903.741000	1584.947266	2363.442383
13309.119043	3903.741000	1583.904297	2512.622070
13309.119043	3903.741000	1582.861328	2240.179688
