#X		#Y		#Wave		#Intensity
2930.207287	5615.541500	1999.980469	-52.265884
2930.207287	5615.541500	1999.016602	4.708393
2930.207287	5615.541500	1998.052734	-33.879883
2930.207287	5615.541500	1997.087891	-137.049866
2930.207287	5615.541500	1996.123047	-180.878479
2930.207287	5615.541500	1995.158203	-110.894493
2930.207287	5615.541500	1994.193359	60.460579
2930.207287	5615.541500	1993.228516	48.362762
2930.207287	5615.541500	1992.262695	130.213364
2930.207287	5615.541500	1991.297852	80.704483
2930.207287	5615.541500	1990.332031	-20.886171
2930.207287	5615.541500	1989.366211	132.306549
2930.207287	5615.541500	1988.399414	131.936874
2930.207287	5615.541500	1987.433594	49.826313
2930.207287	5615.541500	1986.466797	-10.104333
2930.207287	5615.541500	1985.500977	51.040882
2930.207287	5615.541500	1984.534180	57.676704
2930.207287	5615.541500	1983.567383	32.081863
2930.207287	5615.541500	1982.599609	70.658302
2930.207287	5615.541500	1981.632813	49.833561
2930.207287	5615.541500	1980.665039	-104.463676
2930.207287	5615.541500	1979.697266	32.661491
2930.207287	5615.541500	1978.729492	-52.586891
2930.207287	5615.541500	1977.761719	22.606459
2930.207287	5615.541500	1976.792969	-35.594921
2930.207287	5615.541500	1975.825195	59.178711
2930.207287	5615.541500	1974.856445	52.684597
2930.207287	5615.541500	1973.887695	1.727635
2930.207287	5615.541500	1972.918945	-17.199177
2930.207287	5615.541500	1971.949219	-9.042938
2930.207287	5615.541500	1970.980469	77.966095
2930.207287	5615.541500	1970.010742	105.729645
2930.207287	5615.541500	1969.041016	64.424988
2930.207287	5615.541500	1968.071289	-33.585236
2930.207287	5615.541500	1967.101563	87.691925
2930.207287	5615.541500	1966.130859	1.957995
2930.207287	5615.541500	1965.161133	51.689713
2930.207287	5615.541500	1964.190430	199.873260
2930.207287	5615.541500	1963.219727	3.283287
2930.207287	5615.541500	1962.249023	45.518261
2930.207287	5615.541500	1961.277344	85.252319
2930.207287	5615.541500	1960.306641	220.919098
2930.207287	5615.541500	1959.334961	7.160369
2930.207287	5615.541500	1958.363281	2.546423
2930.207287	5615.541500	1957.391602	174.990768
2930.207287	5615.541500	1956.419922	-1.802608
2930.207287	5615.541500	1955.447266	-48.246559
2930.207287	5615.541500	1954.474609	52.794407
2930.207287	5615.541500	1953.501953	104.639275
2930.207287	5615.541500	1952.529297	114.688515
2930.207287	5615.541500	1951.556641	218.079346
2930.207287	5615.541500	1950.583984	61.077324
2930.207287	5615.541500	1949.610352	157.065079
2930.207287	5615.541500	1948.636719	71.329117
2930.207287	5615.541500	1947.663086	-58.560516
2930.207287	5615.541500	1946.689453	86.481812
2930.207287	5615.541500	1945.715820	-13.912930
2930.207287	5615.541500	1944.741211	-16.132421
2930.207287	5615.541500	1943.767578	-30.610165
2930.207287	5615.541500	1942.792969	104.522346
2930.207287	5615.541500	1941.818359	43.448635
2930.207287	5615.541500	1940.842773	129.498108
2930.207287	5615.541500	1939.868164	-88.414383
2930.207287	5615.541500	1938.892578	-230.267654
2930.207287	5615.541500	1937.916992	-14.330570
2930.207287	5615.541500	1936.941406	-82.634270
2930.207287	5615.541500	1935.965820	84.228531
2930.207287	5615.541500	1934.990234	45.338406
2930.207287	5615.541500	1934.013672	-44.942814
2930.207287	5615.541500	1933.037109	-93.564941
2930.207287	5615.541500	1932.060547	9.586142
2930.207287	5615.541500	1931.083984	34.406261
2930.207287	5615.541500	1930.107422	46.996761
2930.207287	5615.541500	1929.129883	-60.264088
2930.207287	5615.541500	1928.153320	-86.764992
2930.207287	5615.541500	1927.175781	13.905079
2930.207287	5615.541500	1926.198242	-51.690407
2930.207287	5615.541500	1925.219727	-146.580017
2930.207287	5615.541500	1924.242188	-60.578526
2930.207287	5615.541500	1923.263672	8.299780
2930.207287	5615.541500	1922.285156	45.408188
2930.207287	5615.541500	1921.306641	70.303749
2930.207287	5615.541500	1920.328125	-114.808586
2930.207287	5615.541500	1919.349609	12.677483
2930.207287	5615.541500	1918.370117	-96.656425
2930.207287	5615.541500	1917.391602	-113.193367
2930.207287	5615.541500	1916.412109	-68.707962
2930.207287	5615.541500	1915.431641	61.162354
2930.207287	5615.541500	1914.452148	-28.536943
2930.207287	5615.541500	1913.472656	-10.884517
2930.207287	5615.541500	1912.492188	60.415504
2930.207287	5615.541500	1911.511719	-12.136126
2930.207287	5615.541500	1910.531250	-33.464149
2930.207287	5615.541500	1909.550781	-105.951332
2930.207287	5615.541500	1908.569336	74.995972
2930.207287	5615.541500	1907.588867	9.841858
2930.207287	5615.541500	1906.607422	73.807266
2930.207287	5615.541500	1905.625977	57.396164
2930.207287	5615.541500	1904.644531	-5.261168
2930.207287	5615.541500	1903.662109	27.046532
2930.207287	5615.541500	1902.680664	-81.811081
2930.207287	5615.541500	1901.698242	57.577328
2930.207287	5615.541500	1900.715820	-77.997795
2930.207287	5615.541500	1899.733398	-118.653336
2930.207287	5615.541500	1898.750000	-222.522842
2930.207287	5615.541500	1897.767578	-46.724594
2930.207287	5615.541500	1896.784180	-14.423959
2930.207287	5615.541500	1895.800781	-84.220261
2930.207287	5615.541500	1894.817383	-0.889650
2930.207287	5615.541500	1893.833984	65.401093
2930.207287	5615.541500	1892.850586	-4.372259
2930.207287	5615.541500	1891.866211	149.327545
2930.207287	5615.541500	1890.881836	-17.573997
2930.207287	5615.541500	1889.897461	-21.748125
2930.207287	5615.541500	1888.913086	22.623171
2930.207287	5615.541500	1887.927734	-59.230541
2930.207287	5615.541500	1886.943359	16.664591
2930.207287	5615.541500	1885.958008	-57.892616
2930.207287	5615.541500	1884.972656	-59.661285
2930.207287	5615.541500	1883.987305	-8.084691
2930.207287	5615.541500	1883.001953	77.409019
2930.207287	5615.541500	1882.015625	44.071281
2930.207287	5615.541500	1881.029297	64.057510
2930.207287	5615.541500	1880.042969	86.447342
2930.207287	5615.541500	1879.056641	62.780384
2930.207287	5615.541500	1878.070313	5.193881
2930.207287	5615.541500	1877.083984	247.939331
2930.207287	5615.541500	1876.096680	144.298309
2930.207287	5615.541500	1875.109375	93.942398
2930.207287	5615.541500	1874.122070	94.419945
2930.207287	5615.541500	1873.134766	31.954105
2930.207287	5615.541500	1872.146484	-30.509073
2930.207287	5615.541500	1871.159180	47.347324
2930.207287	5615.541500	1870.170898	-32.070499
2930.207287	5615.541500	1869.182617	-22.002520
2930.207287	5615.541500	1868.194336	181.469238
2930.207287	5615.541500	1867.205078	-18.874846
2930.207287	5615.541500	1866.216797	53.951309
2930.207287	5615.541500	1865.227539	-59.351414
2930.207287	5615.541500	1864.238281	-37.339287
2930.207287	5615.541500	1863.249023	-73.339462
2930.207287	5615.541500	1862.259766	132.161743
2930.207287	5615.541500	1861.269531	-10.166808
2930.207287	5615.541500	1860.279297	108.267189
2930.207287	5615.541500	1859.290039	2.139619
2930.207287	5615.541500	1858.298828	-19.517147
2930.207287	5615.541500	1857.308594	-2.592400
2930.207287	5615.541500	1856.318359	-46.022285
2930.207287	5615.541500	1855.327148	158.962967
2930.207287	5615.541500	1854.335938	-63.012402
2930.207287	5615.541500	1853.344727	11.622408
2930.207287	5615.541500	1852.353516	-63.271248
2930.207287	5615.541500	1851.362305	-39.359848
2930.207287	5615.541500	1850.370117	73.659897
2930.207287	5615.541500	1849.377930	160.091614
2930.207287	5615.541500	1848.385742	126.004684
2930.207287	5615.541500	1847.393555	176.179428
2930.207287	5615.541500	1846.401367	91.445480
2930.207287	5615.541500	1845.408203	237.812485
2930.207287	5615.541500	1844.415039	-32.338543
2930.207287	5615.541500	1843.421875	104.274208
2930.207287	5615.541500	1842.428711	41.077560
2930.207287	5615.541500	1841.435547	153.467606
2930.207287	5615.541500	1840.441406	-1.216635
2930.207287	5615.541500	1839.448242	86.988136
2930.207287	5615.541500	1838.454102	112.591873
2930.207287	5615.541500	1837.459961	191.016495
2930.207287	5615.541500	1836.464844	-16.650133
2930.207287	5615.541500	1835.470703	83.284752
2930.207287	5615.541500	1834.475586	82.217903
2930.207287	5615.541500	1833.480469	-55.823029
2930.207287	5615.541500	1832.485352	142.353027
2930.207287	5615.541500	1831.490234	198.727188
2930.207287	5615.541500	1830.495117	161.392883
2930.207287	5615.541500	1829.499023	284.824890
2930.207287	5615.541500	1828.502930	156.170776
2930.207287	5615.541500	1827.506836	89.884842
2930.207287	5615.541500	1826.510742	160.296906
2930.207287	5615.541500	1825.513672	-2.032552
2930.207287	5615.541500	1824.517578	-42.066635
2930.207287	5615.541500	1823.520508	32.927155
2930.207287	5615.541500	1822.523438	45.501621
2930.207287	5615.541500	1821.526367	232.956833
2930.207287	5615.541500	1820.529297	53.659794
2930.207287	5615.541500	1819.531250	46.849831
2930.207287	5615.541500	1818.533203	198.060043
2930.207287	5615.541500	1817.535156	-29.237593
2930.207287	5615.541500	1816.537109	-45.817142
2930.207287	5615.541500	1815.539063	-50.492733
2930.207287	5615.541500	1814.540039	47.676373
2930.207287	5615.541500	1813.541992	219.921524
2930.207287	5615.541500	1812.542969	73.815201
2930.207287	5615.541500	1811.543945	-62.742271
2930.207287	5615.541500	1810.543945	-15.170255
2930.207287	5615.541500	1809.544922	72.962440
2930.207287	5615.541500	1808.544922	19.927469
2930.207287	5615.541500	1807.544922	-42.725567
2930.207287	5615.541500	1806.544922	90.534546
2930.207287	5615.541500	1805.544922	249.948990
2930.207287	5615.541500	1804.544922	136.886414
2930.207287	5615.541500	1803.543945	9.451918
2930.207287	5615.541500	1802.542969	154.221909
2930.207287	5615.541500	1801.541992	136.501099
2930.207287	5615.541500	1800.541016	75.737785
2930.207287	5615.541500	1799.539063	12.525084
2930.207287	5615.541500	1798.538086	44.708096
2930.207287	5615.541500	1797.536133	-1.938650
2930.207287	5615.541500	1796.534180	-29.567211
2930.207287	5615.541500	1795.532227	-2.416734
2930.207287	5615.541500	1794.529297	86.630005
2930.207287	5615.541500	1793.527344	-36.609383
2930.207287	5615.541500	1792.524414	18.872330
2930.207287	5615.541500	1791.521484	-37.755661
2930.207287	5615.541500	1790.518555	27.065908
2930.207287	5615.541500	1789.514648	196.587708
2930.207287	5615.541500	1788.511719	3.944169
2930.207287	5615.541500	1787.507813	-143.473969
2930.207287	5615.541500	1786.503906	123.338417
2930.207287	5615.541500	1785.500000	194.773682
2930.207287	5615.541500	1784.496094	92.360878
2930.207287	5615.541500	1783.491211	49.380558
2930.207287	5615.541500	1782.486328	32.498390
2930.207287	5615.541500	1781.481445	101.161934
2930.207287	5615.541500	1780.476563	-56.208069
2930.207287	5615.541500	1779.471680	19.403357
2930.207287	5615.541500	1778.465820	71.119186
2930.207287	5615.541500	1777.460938	-0.857796
2930.207287	5615.541500	1776.455078	64.922546
2930.207287	5615.541500	1775.449219	-102.244064
2930.207287	5615.541500	1774.442383	-136.420944
2930.207287	5615.541500	1773.436523	40.702805
2930.207287	5615.541500	1772.429688	132.181213
2930.207287	5615.541500	1771.422852	47.855827
2930.207287	5615.541500	1770.416016	-62.636192
2930.207287	5615.541500	1769.409180	57.018135
2930.207287	5615.541500	1768.402344	-20.395540
2930.207287	5615.541500	1767.394531	-12.476206
2930.207287	5615.541500	1766.386719	35.670406
2930.207287	5615.541500	1765.378906	-15.887296
2930.207287	5615.541500	1764.371094	-17.726408
2930.207287	5615.541500	1763.362305	-24.403227
2930.207287	5615.541500	1762.354492	23.349768
2930.207287	5615.541500	1761.345703	78.095642
2930.207287	5615.541500	1760.336914	-47.319584
2930.207287	5615.541500	1759.328125	68.823952
2930.207287	5615.541500	1758.318359	78.257195
2930.207287	5615.541500	1757.308594	-68.673042
2930.207287	5615.541500	1756.299805	37.670433
2930.207287	5615.541500	1755.290039	-95.174156
2930.207287	5615.541500	1754.279297	-140.509125
2930.207287	5615.541500	1753.269531	116.930779
2930.207287	5615.541500	1752.258789	182.571487
2930.207287	5615.541500	1751.249023	4.509172
2930.207287	5615.541500	1750.238281	8.489772
2930.207287	5615.541500	1749.226563	-96.377808
2930.207287	5615.541500	1748.215820	91.810738
2930.207287	5615.541500	1747.204102	116.768204
2930.207287	5615.541500	1746.193359	11.684397
2930.207287	5615.541500	1745.181641	-76.919113
2930.207287	5615.541500	1744.168945	-21.510984
2930.207287	5615.541500	1743.157227	-79.550308
2930.207287	5615.541500	1742.144531	60.658375
2930.207287	5615.541500	1741.132813	-35.316338
2930.207287	5615.541500	1740.120117	-77.067863
2930.207287	5615.541500	1739.106445	-41.031120
2930.207287	5615.541500	1738.093750	-120.683357
2930.207287	5615.541500	1737.080078	162.842972
2930.207287	5615.541500	1736.067383	-148.098465
2930.207287	5615.541500	1735.053711	14.906945
2930.207287	5615.541500	1734.040039	5.677913
2930.207287	5615.541500	1733.025391	118.919289
2930.207287	5615.541500	1732.011719	19.960958
2930.207287	5615.541500	1730.997070	-48.423622
2930.207287	5615.541500	1729.982422	-57.975468
2930.207287	5615.541500	1728.967773	125.514435
2930.207287	5615.541500	1727.952148	61.602169
2930.207287	5615.541500	1726.937500	47.082310
2930.207287	5615.541500	1725.921875	58.368729
2930.207287	5615.541500	1724.906250	-43.389015
2930.207287	5615.541500	1723.890625	50.101143
2930.207287	5615.541500	1722.875000	-18.840397
2930.207287	5615.541500	1721.858398	29.753717
2930.207287	5615.541500	1720.841797	-119.276680
2930.207287	5615.541500	1719.825195	67.875648
2930.207287	5615.541500	1718.808594	-41.298435
2930.207287	5615.541500	1717.791992	-75.301735
2930.207287	5615.541500	1716.774414	-67.083687
2930.207287	5615.541500	1715.756836	67.916641
2930.207287	5615.541500	1714.739258	5.489956
2930.207287	5615.541500	1713.721680	-87.515923
2930.207287	5615.541500	1712.704102	77.712189
2930.207287	5615.541500	1711.685547	-13.081582
2930.207287	5615.541500	1710.667969	-155.535355
2930.207287	5615.541500	1709.649414	96.206566
2930.207287	5615.541500	1708.630859	75.630943
2930.207287	5615.541500	1707.611328	73.747307
2930.207287	5615.541500	1706.592773	-228.382187
2930.207287	5615.541500	1705.573242	-7.591787
2930.207287	5615.541500	1704.553711	-7.320210
2930.207287	5615.541500	1703.534180	-0.084767
2930.207287	5615.541500	1702.513672	-164.000198
2930.207287	5615.541500	1701.494141	9.481632
2930.207287	5615.541500	1700.473633	96.146553
2930.207287	5615.541500	1699.453125	72.635757
2930.207287	5615.541500	1698.432617	-56.301899
2930.207287	5615.541500	1697.412109	-42.441982
2930.207287	5615.541500	1696.390625	57.945702
2930.207287	5615.541500	1695.369141	-52.391430
2930.207287	5615.541500	1694.347656	38.478111
2930.207287	5615.541500	1693.326172	98.841301
2930.207287	5615.541500	1692.304688	-11.619370
2930.207287	5615.541500	1691.282227	121.093147
2930.207287	5615.541500	1690.260742	174.217728
2930.207287	5615.541500	1689.238281	75.309616
2930.207287	5615.541500	1688.214844	93.227928
2930.207287	5615.541500	1687.192383	66.700134
2930.207287	5615.541500	1686.168945	210.660614
2930.207287	5615.541500	1685.146484	247.079681
2930.207287	5615.541500	1684.123047	117.611267
2930.207287	5615.541500	1683.099609	48.848213
2930.207287	5615.541500	1682.075195	176.140244
2930.207287	5615.541500	1681.051758	195.983963
2930.207287	5615.541500	1680.027344	353.436279
2930.207287	5615.541500	1679.002930	188.814835
2930.207287	5615.541500	1677.978516	332.117157
2930.207287	5615.541500	1676.953125	365.692810
2930.207287	5615.541500	1675.928711	287.300018
2930.207287	5615.541500	1674.903320	218.205353
2930.207287	5615.541500	1673.877930	237.665588
2930.207287	5615.541500	1672.852539	261.736908
2930.207287	5615.541500	1671.826172	197.206665
2930.207287	5615.541500	1670.800781	211.876984
2930.207287	5615.541500	1669.774414	354.585358
2930.207287	5615.541500	1668.748047	266.670319
2930.207287	5615.541500	1667.721680	390.611420
2930.207287	5615.541500	1666.694336	237.460526
2930.207287	5615.541500	1665.667969	400.850159
2930.207287	5615.541500	1664.640625	475.711304
2930.207287	5615.541500	1663.613281	594.709839
2930.207287	5615.541500	1662.585938	678.742188
2930.207287	5615.541500	1661.557617	674.329041
2930.207287	5615.541500	1660.530273	576.900024
2930.207287	5615.541500	1659.501953	658.456116
2930.207287	5615.541500	1658.473633	567.968018
2930.207287	5615.541500	1657.444336	649.424133
2930.207287	5615.541500	1656.416016	621.644775
2930.207287	5615.541500	1655.386719	658.873047
2930.207287	5615.541500	1654.358398	489.392487
2930.207287	5615.541500	1653.328125	549.788635
2930.207287	5615.541500	1652.298828	714.614624
2930.207287	5615.541500	1651.269531	788.839233
2930.207287	5615.541500	1650.239258	985.986694
2930.207287	5615.541500	1649.208984	770.068909
2930.207287	5615.541500	1648.178711	983.342896
2930.207287	5615.541500	1647.148438	834.727539
2930.207287	5615.541500	1646.117188	864.680786
2930.207287	5615.541500	1645.086914	1311.906128
2930.207287	5615.541500	1644.055664	1174.841919
2930.207287	5615.541500	1643.024414	1223.206909
2930.207287	5615.541500	1641.992188	1236.772583
2930.207287	5615.541500	1640.960938	1252.651733
2930.207287	5615.541500	1639.928711	1314.820679
2930.207287	5615.541500	1638.896484	1265.809692
2930.207287	5615.541500	1637.864258	1244.589844
2930.207287	5615.541500	1636.832031	1339.105347
2930.207287	5615.541500	1635.798828	1347.937256
2930.207287	5615.541500	1634.766602	1484.031372
2930.207287	5615.541500	1633.733398	1472.003418
2930.207287	5615.541500	1632.699219	1487.716797
2930.207287	5615.541500	1631.666016	1600.557007
2930.207287	5615.541500	1630.632813	1660.177979
2930.207287	5615.541500	1629.598633	1590.316895
2930.207287	5615.541500	1628.564453	1686.880371
2930.207287	5615.541500	1627.530273	1979.812866
2930.207287	5615.541500	1626.495117	1919.162842
2930.207287	5615.541500	1625.460938	1786.953613
2930.207287	5615.541500	1624.425781	1899.570313
2930.207287	5615.541500	1623.390625	1917.487915
2930.207287	5615.541500	1622.355469	2117.767090
2930.207287	5615.541500	1621.319336	2057.167480
2930.207287	5615.541500	1620.284180	2195.058594
2930.207287	5615.541500	1619.248047	2314.436279
2930.207287	5615.541500	1618.211914	2270.011719
2930.207287	5615.541500	1617.174805	2140.276123
2930.207287	5615.541500	1616.138672	2411.807861
2930.207287	5615.541500	1615.101563	2346.670410
2930.207287	5615.541500	1614.065430	2293.111816
2930.207287	5615.541500	1613.027344	2463.085205
2930.207287	5615.541500	1611.990234	2812.726318
2930.207287	5615.541500	1610.953125	2911.175293
2930.207287	5615.541500	1609.915039	2733.233643
2930.207287	5615.541500	1608.876953	2608.339844
2930.207287	5615.541500	1607.838867	2693.007813
2930.207287	5615.541500	1606.800781	2823.698486
2930.207287	5615.541500	1605.761719	2708.120850
2930.207287	5615.541500	1604.723633	2898.626465
2930.207287	5615.541500	1603.684570	2681.917480
2930.207287	5615.541500	1602.644531	2642.395020
2930.207287	5615.541500	1601.605469	2596.030518
2930.207287	5615.541500	1600.566406	2671.559326
2930.207287	5615.541500	1599.526367	2767.761719
2930.207287	5615.541500	1598.486328	2684.709473
2930.207287	5615.541500	1597.446289	2783.232178
2930.207287	5615.541500	1596.405273	2819.713867
2930.207287	5615.541500	1595.365234	2837.854736
2930.207287	5615.541500	1594.324219	2980.009521
2930.207287	5615.541500	1593.283203	2835.167480
2930.207287	5615.541500	1592.242188	2926.842041
2930.207287	5615.541500	1591.200195	2768.359375
2930.207287	5615.541500	1590.159180	2963.340332
2930.207287	5615.541500	1589.117188	2981.632324
2930.207287	5615.541500	1588.075195	3178.856445
2930.207287	5615.541500	1587.032227	3144.427734
2930.207287	5615.541500	1585.990234	3176.556152
2930.207287	5615.541500	1584.947266	3165.149902
2930.207287	5615.541500	1583.904297	3229.422852
2930.207287	5615.541500	1582.861328	3183.732422
2930.207287	5615.541500	1581.818359	3115.198486
2930.207287	5615.541500	1580.775391	3113.161133
2930.207287	5615.541500	1579.731445	3159.250977
2930.207287	5615.541500	1578.687500	3246.584229
2930.207287	5615.541500	1577.643555	2995.148193
2930.207287	5615.541500	1576.598633	2942.962646
2930.207287	5615.541500	1575.554688	2883.996338
2930.207287	5615.541500	1574.509766	3108.776855
2930.207287	5615.541500	1573.464844	2953.831299
