#X		#Y		#Wave		#Intensity
13275.136543	3909.127333	1999.980469	66.972504
13275.136543	3909.127333	1999.016602	-39.188549
13275.136543	3909.127333	1998.052734	-281.830536
13275.136543	3909.127333	1997.087891	-207.698227
13275.136543	3909.127333	1996.123047	-62.251347
13275.136543	3909.127333	1995.158203	102.463570
13275.136543	3909.127333	1994.193359	-102.397202
13275.136543	3909.127333	1993.228516	-92.208946
13275.136543	3909.127333	1992.262695	93.317680
13275.136543	3909.127333	1991.297852	124.859245
13275.136543	3909.127333	1990.332031	52.028183
13275.136543	3909.127333	1989.366211	179.247925
13275.136543	3909.127333	1988.399414	199.649689
13275.136543	3909.127333	1987.433594	-69.744949
13275.136543	3909.127333	1986.466797	-92.095551
13275.136543	3909.127333	1985.500977	6.361603
13275.136543	3909.127333	1984.534180	-56.246014
13275.136543	3909.127333	1983.567383	115.650261
13275.136543	3909.127333	1982.599609	15.331219
13275.136543	3909.127333	1981.632813	70.399139
13275.136543	3909.127333	1980.665039	48.574490
13275.136543	3909.127333	1979.697266	-104.429245
13275.136543	3909.127333	1978.729492	73.250633
13275.136543	3909.127333	1977.761719	3.708020
13275.136543	3909.127333	1976.792969	198.069138
13275.136543	3909.127333	1975.825195	113.227180
13275.136543	3909.127333	1974.856445	151.564865
13275.136543	3909.127333	1973.887695	63.843693
13275.136543	3909.127333	1972.918945	222.607529
13275.136543	3909.127333	1971.949219	3.781083
13275.136543	3909.127333	1970.980469	56.074066
13275.136543	3909.127333	1970.010742	-79.200523
13275.136543	3909.127333	1969.041016	113.220734
13275.136543	3909.127333	1968.071289	81.145210
13275.136543	3909.127333	1967.101563	248.497269
13275.136543	3909.127333	1966.130859	233.339905
13275.136543	3909.127333	1965.161133	67.801575
13275.136543	3909.127333	1964.190430	293.731079
13275.136543	3909.127333	1963.219727	125.513618
13275.136543	3909.127333	1962.249023	156.629196
13275.136543	3909.127333	1961.277344	182.693832
13275.136543	3909.127333	1960.306641	220.945663
13275.136543	3909.127333	1959.334961	158.209793
13275.136543	3909.127333	1958.363281	95.401367
13275.136543	3909.127333	1957.391602	303.055084
13275.136543	3909.127333	1956.419922	119.587227
13275.136543	3909.127333	1955.447266	115.574127
13275.136543	3909.127333	1954.474609	249.136673
13275.136543	3909.127333	1953.501953	50.821484
13275.136543	3909.127333	1952.529297	103.137955
13275.136543	3909.127333	1951.556641	184.859909
13275.136543	3909.127333	1950.583984	62.641907
13275.136543	3909.127333	1949.610352	183.534485
13275.136543	3909.127333	1948.636719	61.276051
13275.136543	3909.127333	1947.663086	110.860519
13275.136543	3909.127333	1946.689453	-143.939072
13275.136543	3909.127333	1945.715820	-23.230698
13275.136543	3909.127333	1944.741211	-5.634646
13275.136543	3909.127333	1943.767578	11.937953
13275.136543	3909.127333	1942.792969	134.944199
13275.136543	3909.127333	1941.818359	39.663662
13275.136543	3909.127333	1940.842773	20.408064
13275.136543	3909.127333	1939.868164	265.877136
13275.136543	3909.127333	1938.892578	-0.934586
13275.136543	3909.127333	1937.916992	212.594772
13275.136543	3909.127333	1936.941406	90.435036
13275.136543	3909.127333	1935.965820	27.113579
13275.136543	3909.127333	1934.990234	-48.418564
13275.136543	3909.127333	1934.013672	-23.526316
13275.136543	3909.127333	1933.037109	128.664429
13275.136543	3909.127333	1932.060547	-189.093903
13275.136543	3909.127333	1931.083984	34.075054
13275.136543	3909.127333	1930.107422	41.888332
13275.136543	3909.127333	1929.129883	152.458084
13275.136543	3909.127333	1928.153320	-162.523636
13275.136543	3909.127333	1927.175781	-32.337761
13275.136543	3909.127333	1926.198242	-97.746864
13275.136543	3909.127333	1925.219727	-65.329529
13275.136543	3909.127333	1924.242188	-89.095566
13275.136543	3909.127333	1923.263672	-71.281105
13275.136543	3909.127333	1922.285156	-138.937378
13275.136543	3909.127333	1921.306641	10.849008
13275.136543	3909.127333	1920.328125	-98.232330
13275.136543	3909.127333	1919.349609	71.103867
13275.136543	3909.127333	1918.370117	235.534485
13275.136543	3909.127333	1917.391602	-36.922234
13275.136543	3909.127333	1916.412109	20.186970
13275.136543	3909.127333	1915.431641	189.544571
13275.136543	3909.127333	1914.452148	-33.833618
13275.136543	3909.127333	1913.472656	-113.193932
13275.136543	3909.127333	1912.492188	22.095367
13275.136543	3909.127333	1911.511719	-154.668762
13275.136543	3909.127333	1910.531250	-58.326828
13275.136543	3909.127333	1909.550781	-13.151051
13275.136543	3909.127333	1908.569336	-184.794968
13275.136543	3909.127333	1907.588867	-120.028183
13275.136543	3909.127333	1906.607422	-125.870918
13275.136543	3909.127333	1905.625977	121.593178
13275.136543	3909.127333	1904.644531	57.369858
13275.136543	3909.127333	1903.662109	63.810364
13275.136543	3909.127333	1902.680664	101.937241
13275.136543	3909.127333	1901.698242	35.460907
13275.136543	3909.127333	1900.715820	-62.570045
13275.136543	3909.127333	1899.733398	-94.842560
13275.136543	3909.127333	1898.750000	-44.370682
13275.136543	3909.127333	1897.767578	-76.542793
13275.136543	3909.127333	1896.784180	-157.280136
13275.136543	3909.127333	1895.800781	102.343292
13275.136543	3909.127333	1894.817383	-85.236656
13275.136543	3909.127333	1893.833984	-37.020733
13275.136543	3909.127333	1892.850586	-5.786092
13275.136543	3909.127333	1891.866211	132.344757
13275.136543	3909.127333	1890.881836	-101.071770
13275.136543	3909.127333	1889.897461	54.100124
13275.136543	3909.127333	1888.913086	-14.070230
13275.136543	3909.127333	1887.927734	-11.795192
13275.136543	3909.127333	1886.943359	-89.560295
13275.136543	3909.127333	1885.958008	70.494873
13275.136543	3909.127333	1884.972656	184.437958
13275.136543	3909.127333	1883.987305	94.658424
13275.136543	3909.127333	1883.001953	-77.496300
13275.136543	3909.127333	1882.015625	94.689125
13275.136543	3909.127333	1881.029297	182.006699
13275.136543	3909.127333	1880.042969	58.489265
13275.136543	3909.127333	1879.056641	-152.178940
13275.136543	3909.127333	1878.070313	133.858154
13275.136543	3909.127333	1877.083984	-18.567842
13275.136543	3909.127333	1876.096680	30.073824
13275.136543	3909.127333	1875.109375	85.982986
13275.136543	3909.127333	1874.122070	190.302719
13275.136543	3909.127333	1873.134766	-12.758515
13275.136543	3909.127333	1872.146484	45.602482
13275.136543	3909.127333	1871.159180	-75.067993
13275.136543	3909.127333	1870.170898	-11.849570
13275.136543	3909.127333	1869.182617	-204.987000
13275.136543	3909.127333	1868.194336	80.702682
13275.136543	3909.127333	1867.205078	97.958206
13275.136543	3909.127333	1866.216797	-95.063057
13275.136543	3909.127333	1865.227539	47.892323
13275.136543	3909.127333	1864.238281	4.761075
13275.136543	3909.127333	1863.249023	-64.923317
13275.136543	3909.127333	1862.259766	34.482002
13275.136543	3909.127333	1861.269531	-8.619287
13275.136543	3909.127333	1860.279297	90.735840
13275.136543	3909.127333	1859.290039	-85.125320
13275.136543	3909.127333	1858.298828	-128.191513
13275.136543	3909.127333	1857.308594	-86.796791
13275.136543	3909.127333	1856.318359	-105.738701
13275.136543	3909.127333	1855.327148	-168.099976
13275.136543	3909.127333	1854.335938	-73.699844
13275.136543	3909.127333	1853.344727	-22.749039
13275.136543	3909.127333	1852.353516	66.736992
13275.136543	3909.127333	1851.362305	-14.952489
13275.136543	3909.127333	1850.370117	108.197327
13275.136543	3909.127333	1849.377930	-38.562428
13275.136543	3909.127333	1848.385742	-7.035277
13275.136543	3909.127333	1847.393555	-11.671242
13275.136543	3909.127333	1846.401367	-33.187916
13275.136543	3909.127333	1845.408203	-54.724903
13275.136543	3909.127333	1844.415039	-102.762405
13275.136543	3909.127333	1843.421875	70.591354
13275.136543	3909.127333	1842.428711	87.447899
13275.136543	3909.127333	1841.435547	-3.993363
13275.136543	3909.127333	1840.441406	178.756714
13275.136543	3909.127333	1839.448242	-16.148754
13275.136543	3909.127333	1838.454102	-172.553955
13275.136543	3909.127333	1837.459961	38.847282
13275.136543	3909.127333	1836.464844	-21.460913
13275.136543	3909.127333	1835.470703	196.950317
13275.136543	3909.127333	1834.475586	35.634903
13275.136543	3909.127333	1833.480469	30.463667
13275.136543	3909.127333	1832.485352	-8.380519
13275.136543	3909.127333	1831.490234	130.421936
13275.136543	3909.127333	1830.495117	-14.164819
13275.136543	3909.127333	1829.499023	-17.141344
13275.136543	3909.127333	1828.502930	430.984589
13275.136543	3909.127333	1827.506836	144.684952
13275.136543	3909.127333	1826.510742	136.702240
13275.136543	3909.127333	1825.513672	226.992767
13275.136543	3909.127333	1824.517578	151.724945
13275.136543	3909.127333	1823.520508	107.584435
13275.136543	3909.127333	1822.523438	-54.064056
13275.136543	3909.127333	1821.526367	148.564041
13275.136543	3909.127333	1820.529297	355.836304
13275.136543	3909.127333	1819.531250	138.913757
13275.136543	3909.127333	1818.533203	104.038437
13275.136543	3909.127333	1817.535156	169.680481
13275.136543	3909.127333	1816.537109	60.432152
13275.136543	3909.127333	1815.539063	195.324188
13275.136543	3909.127333	1814.540039	198.442154
13275.136543	3909.127333	1813.541992	81.827301
13275.136543	3909.127333	1812.542969	357.548615
13275.136543	3909.127333	1811.543945	276.657349
13275.136543	3909.127333	1810.543945	205.274887
13275.136543	3909.127333	1809.544922	380.124878
13275.136543	3909.127333	1808.544922	291.835297
13275.136543	3909.127333	1807.544922	342.123779
13275.136543	3909.127333	1806.544922	138.978271
13275.136543	3909.127333	1805.544922	299.001984
13275.136543	3909.127333	1804.544922	384.811798
13275.136543	3909.127333	1803.543945	179.095062
13275.136543	3909.127333	1802.542969	243.206665
13275.136543	3909.127333	1801.541992	180.651276
13275.136543	3909.127333	1800.541016	275.570251
13275.136543	3909.127333	1799.539063	234.306931
13275.136543	3909.127333	1798.538086	286.022675
13275.136543	3909.127333	1797.536133	287.509674
13275.136543	3909.127333	1796.534180	598.981934
13275.136543	3909.127333	1795.532227	197.153198
13275.136543	3909.127333	1794.529297	346.166199
13275.136543	3909.127333	1793.527344	306.684418
13275.136543	3909.127333	1792.524414	236.117294
13275.136543	3909.127333	1791.521484	163.082779
13275.136543	3909.127333	1790.518555	240.068176
13275.136543	3909.127333	1789.514648	247.824158
13275.136543	3909.127333	1788.511719	76.838661
13275.136543	3909.127333	1787.507813	58.199837
13275.136543	3909.127333	1786.503906	110.875900
13275.136543	3909.127333	1785.500000	322.898224
13275.136543	3909.127333	1784.496094	111.099007
13275.136543	3909.127333	1783.491211	-24.600729
13275.136543	3909.127333	1782.486328	303.536316
13275.136543	3909.127333	1781.481445	110.525055
13275.136543	3909.127333	1780.476563	114.848114
13275.136543	3909.127333	1779.471680	140.446213
13275.136543	3909.127333	1778.465820	70.818047
13275.136543	3909.127333	1777.460938	138.949432
13275.136543	3909.127333	1776.455078	130.884293
13275.136543	3909.127333	1775.449219	-36.485767
13275.136543	3909.127333	1774.442383	38.365910
13275.136543	3909.127333	1773.436523	101.194717
13275.136543	3909.127333	1772.429688	270.717560
13275.136543	3909.127333	1771.422852	176.529755
13275.136543	3909.127333	1770.416016	172.446243
13275.136543	3909.127333	1769.409180	-2.631105
13275.136543	3909.127333	1768.402344	66.615662
13275.136543	3909.127333	1767.394531	90.627556
13275.136543	3909.127333	1766.386719	24.371702
13275.136543	3909.127333	1765.378906	109.774506
13275.136543	3909.127333	1764.371094	-18.364563
13275.136543	3909.127333	1763.362305	107.041611
13275.136543	3909.127333	1762.354492	104.296303
13275.136543	3909.127333	1761.345703	-130.802017
13275.136543	3909.127333	1760.336914	129.195145
13275.136543	3909.127333	1759.328125	17.084467
13275.136543	3909.127333	1758.318359	-78.547455
13275.136543	3909.127333	1757.308594	50.657497
13275.136543	3909.127333	1756.299805	61.323593
13275.136543	3909.127333	1755.290039	-63.065521
13275.136543	3909.127333	1754.279297	-121.291557
13275.136543	3909.127333	1753.269531	-49.496010
13275.136543	3909.127333	1752.258789	59.977901
13275.136543	3909.127333	1751.249023	55.761688
13275.136543	3909.127333	1750.238281	56.133762
13275.136543	3909.127333	1749.226563	32.719761
13275.136543	3909.127333	1748.215820	125.009445
13275.136543	3909.127333	1747.204102	4.429959
13275.136543	3909.127333	1746.193359	-213.103592
13275.136543	3909.127333	1745.181641	60.665577
13275.136543	3909.127333	1744.168945	-57.884838
13275.136543	3909.127333	1743.157227	-193.045914
13275.136543	3909.127333	1742.144531	61.261665
13275.136543	3909.127333	1741.132813	112.343071
13275.136543	3909.127333	1740.120117	-124.669113
13275.136543	3909.127333	1739.106445	-78.580643
13275.136543	3909.127333	1738.093750	-119.921471
13275.136543	3909.127333	1737.080078	-137.804810
13275.136543	3909.127333	1736.067383	-191.177063
13275.136543	3909.127333	1735.053711	-155.075714
13275.136543	3909.127333	1734.040039	-24.825741
13275.136543	3909.127333	1733.025391	48.663792
13275.136543	3909.127333	1732.011719	-113.642288
13275.136543	3909.127333	1730.997070	-205.348755
13275.136543	3909.127333	1729.982422	-78.082756
13275.136543	3909.127333	1728.967773	-139.406250
13275.136543	3909.127333	1727.952148	-144.337204
13275.136543	3909.127333	1726.937500	159.019226
13275.136543	3909.127333	1725.921875	43.147022
13275.136543	3909.127333	1724.906250	-96.343903
13275.136543	3909.127333	1723.890625	-82.972443
13275.136543	3909.127333	1722.875000	29.066727
13275.136543	3909.127333	1721.858398	9.213064
13275.136543	3909.127333	1720.841797	-140.092865
13275.136543	3909.127333	1719.825195	124.320557
13275.136543	3909.127333	1718.808594	-83.967827
13275.136543	3909.127333	1717.791992	-144.241455
13275.136543	3909.127333	1716.774414	-77.742950
13275.136543	3909.127333	1715.756836	183.594894
13275.136543	3909.127333	1714.739258	-76.728088
13275.136543	3909.127333	1713.721680	-71.707153
13275.136543	3909.127333	1712.704102	62.326515
13275.136543	3909.127333	1711.685547	76.453049
13275.136543	3909.127333	1710.667969	41.180714
13275.136543	3909.127333	1709.649414	160.662979
13275.136543	3909.127333	1708.630859	99.330307
13275.136543	3909.127333	1707.611328	-30.135002
13275.136543	3909.127333	1706.592773	-75.224709
13275.136543	3909.127333	1705.573242	-193.115234
13275.136543	3909.127333	1704.553711	64.016968
13275.136543	3909.127333	1703.534180	-105.647408
13275.136543	3909.127333	1702.513672	-219.132523
13275.136543	3909.127333	1701.494141	42.204781
13275.136543	3909.127333	1700.473633	155.737915
13275.136543	3909.127333	1699.453125	27.882826
13275.136543	3909.127333	1698.432617	42.808578
13275.136543	3909.127333	1697.412109	-213.956360
13275.136543	3909.127333	1696.390625	-152.404388
13275.136543	3909.127333	1695.369141	-48.858406
13275.136543	3909.127333	1694.347656	-106.903152
13275.136543	3909.127333	1693.326172	52.531887
13275.136543	3909.127333	1692.304688	66.790688
13275.136543	3909.127333	1691.282227	-50.026775
13275.136543	3909.127333	1690.260742	22.495424
13275.136543	3909.127333	1689.238281	120.590149
13275.136543	3909.127333	1688.214844	33.900002
13275.136543	3909.127333	1687.192383	127.086594
13275.136543	3909.127333	1686.168945	16.874496
13275.136543	3909.127333	1685.146484	-41.986420
13275.136543	3909.127333	1684.123047	50.863857
13275.136543	3909.127333	1683.099609	24.508015
13275.136543	3909.127333	1682.075195	65.754395
13275.136543	3909.127333	1681.051758	174.597702
13275.136543	3909.127333	1680.027344	84.945213
13275.136543	3909.127333	1679.002930	76.898544
13275.136543	3909.127333	1677.978516	89.763786
13275.136543	3909.127333	1676.953125	142.171234
13275.136543	3909.127333	1675.928711	217.810745
13275.136543	3909.127333	1674.903320	111.482475
13275.136543	3909.127333	1673.877930	51.732803
13275.136543	3909.127333	1672.852539	269.244843
13275.136543	3909.127333	1671.826172	269.894653
13275.136543	3909.127333	1670.800781	100.433441
13275.136543	3909.127333	1669.774414	103.295479
13275.136543	3909.127333	1668.748047	185.256058
13275.136543	3909.127333	1667.721680	99.488571
13275.136543	3909.127333	1666.694336	269.712616
13275.136543	3909.127333	1665.667969	314.150726
13275.136543	3909.127333	1664.640625	267.741516
13275.136543	3909.127333	1663.613281	258.507690
13275.136543	3909.127333	1662.585938	367.833618
13275.136543	3909.127333	1661.557617	314.257080
13275.136543	3909.127333	1660.530273	386.209137
13275.136543	3909.127333	1659.501953	460.379913
13275.136543	3909.127333	1658.473633	441.501434
13275.136543	3909.127333	1657.444336	638.656189
13275.136543	3909.127333	1656.416016	508.127228
13275.136543	3909.127333	1655.386719	519.265503
13275.136543	3909.127333	1654.358398	453.730225
13275.136543	3909.127333	1653.328125	671.401184
13275.136543	3909.127333	1652.298828	545.391052
13275.136543	3909.127333	1651.269531	790.734497
13275.136543	3909.127333	1650.239258	827.075317
13275.136543	3909.127333	1649.208984	754.316772
13275.136543	3909.127333	1648.178711	1089.795654
13275.136543	3909.127333	1647.148438	986.783875
13275.136543	3909.127333	1646.117188	950.997620
13275.136543	3909.127333	1645.086914	926.798889
13275.136543	3909.127333	1644.055664	1018.446045
13275.136543	3909.127333	1643.024414	896.828064
13275.136543	3909.127333	1641.992188	891.051514
13275.136543	3909.127333	1640.960938	1174.824219
13275.136543	3909.127333	1639.928711	1233.787354
13275.136543	3909.127333	1638.896484	1204.708862
13275.136543	3909.127333	1637.864258	1272.851074
13275.136543	3909.127333	1636.832031	1151.141602
13275.136543	3909.127333	1635.798828	1244.661377
13275.136543	3909.127333	1634.766602	1398.300293
13275.136543	3909.127333	1633.733398	1181.713013
13275.136543	3909.127333	1632.699219	1277.411743
13275.136543	3909.127333	1631.666016	1250.518921
13275.136543	3909.127333	1630.632813	1209.751465
13275.136543	3909.127333	1629.598633	1270.676392
13275.136543	3909.127333	1628.564453	1289.968384
13275.136543	3909.127333	1627.530273	1422.465942
13275.136543	3909.127333	1626.495117	1513.304688
13275.136543	3909.127333	1625.460938	1507.111938
13275.136543	3909.127333	1624.425781	1595.581299
13275.136543	3909.127333	1623.390625	1575.499512
13275.136543	3909.127333	1622.355469	1726.246948
13275.136543	3909.127333	1621.319336	1906.922363
13275.136543	3909.127333	1620.284180	1935.255493
13275.136543	3909.127333	1619.248047	1795.150879
13275.136543	3909.127333	1618.211914	1671.254639
13275.136543	3909.127333	1617.174805	1688.071533
13275.136543	3909.127333	1616.138672	1801.750244
13275.136543	3909.127333	1615.101563	1936.125122
13275.136543	3909.127333	1614.065430	2045.127808
13275.136543	3909.127333	1613.027344	1898.285522
13275.136543	3909.127333	1611.990234	1931.239502
13275.136543	3909.127333	1610.953125	1936.558228
13275.136543	3909.127333	1609.915039	1826.728271
13275.136543	3909.127333	1608.876953	2136.027100
13275.136543	3909.127333	1607.838867	1858.194946
13275.136543	3909.127333	1606.800781	2112.178467
13275.136543	3909.127333	1605.761719	2262.518311
13275.136543	3909.127333	1604.723633	2088.440430
13275.136543	3909.127333	1603.684570	2008.756470
13275.136543	3909.127333	1602.644531	2094.707275
13275.136543	3909.127333	1601.605469	2258.856689
13275.136543	3909.127333	1600.566406	2135.609131
13275.136543	3909.127333	1599.526367	2212.400146
13275.136543	3909.127333	1598.486328	2158.210938
13275.136543	3909.127333	1597.446289	2370.606445
13275.136543	3909.127333	1596.405273	2206.211426
13275.136543	3909.127333	1595.365234	2191.226807
13275.136543	3909.127333	1594.324219	2160.203125
13275.136543	3909.127333	1593.283203	2347.343018
13275.136543	3909.127333	1592.242188	2252.128906
13275.136543	3909.127333	1591.200195	2512.697021
13275.136543	3909.127333	1590.159180	1986.231201
13275.136543	3909.127333	1589.117188	2191.801025
13275.136543	3909.127333	1588.075195	2195.510498
13275.136543	3909.127333	1587.032227	2258.882324
13275.136543	3909.127333	1585.990234	2132.012207
13275.136543	3909.127333	1584.947266	2090.047852
13275.136543	3909.127333	1583.904297	2300.259766
