#X		#Y		#Wave		#Intensity
3055.905638	5960.741500	1999.980469	-44.064838
3055.905638	5960.741500	1999.016602	-39.078365
3055.905638	5960.741500	1998.052734	-183.962326
3055.905638	5960.741500	1997.087891	-76.913483
3055.905638	5960.741500	1996.123047	-87.237816
3055.905638	5960.741500	1995.158203	-143.004471
3055.905638	5960.741500	1994.193359	18.376028
3055.905638	5960.741500	1993.228516	27.839264
3055.905638	5960.741500	1992.262695	-62.498135
3055.905638	5960.741500	1991.297852	17.232227
3055.905638	5960.741500	1990.332031	9.596317
3055.905638	5960.741500	1989.366211	11.154625
3055.905638	5960.741500	1988.399414	66.470009
3055.905638	5960.741500	1987.433594	229.930298
3055.905638	5960.741500	1986.466797	36.580101
3055.905638	5960.741500	1985.500977	-144.958710
3055.905638	5960.741500	1984.534180	9.197721
3055.905638	5960.741500	1983.567383	39.140362
3055.905638	5960.741500	1982.599609	-47.621357
3055.905638	5960.741500	1981.632813	122.070465
3055.905638	5960.741500	1980.665039	-39.829582
3055.905638	5960.741500	1979.697266	146.087341
3055.905638	5960.741500	1978.729492	138.847092
3055.905638	5960.741500	1977.761719	-68.832527
3055.905638	5960.741500	1976.792969	120.557213
3055.905638	5960.741500	1975.825195	-8.924140
3055.905638	5960.741500	1974.856445	19.165794
3055.905638	5960.741500	1973.887695	152.943176
3055.905638	5960.741500	1972.918945	-39.299175
3055.905638	5960.741500	1971.949219	98.646599
3055.905638	5960.741500	1970.980469	218.938599
3055.905638	5960.741500	1970.010742	57.819092
3055.905638	5960.741500	1969.041016	165.115082
3055.905638	5960.741500	1968.071289	163.641876
3055.905638	5960.741500	1967.101563	-52.473156
3055.905638	5960.741500	1966.130859	-143.139542
3055.905638	5960.741500	1965.161133	320.143036
3055.905638	5960.741500	1964.190430	194.465546
3055.905638	5960.741500	1963.219727	248.336258
3055.905638	5960.741500	1962.249023	338.891510
3055.905638	5960.741500	1961.277344	148.633865
3055.905638	5960.741500	1960.306641	125.579880
3055.905638	5960.741500	1959.334961	208.140823
3055.905638	5960.741500	1958.363281	54.357586
3055.905638	5960.741500	1957.391602	48.028893
3055.905638	5960.741500	1956.419922	127.610390
3055.905638	5960.741500	1955.447266	12.803869
3055.905638	5960.741500	1954.474609	97.001205
3055.905638	5960.741500	1953.501953	365.356323
3055.905638	5960.741500	1952.529297	137.173294
3055.905638	5960.741500	1951.556641	44.081013
3055.905638	5960.741500	1950.583984	2.505970
3055.905638	5960.741500	1949.610352	287.459076
3055.905638	5960.741500	1948.636719	118.008919
3055.905638	5960.741500	1947.663086	108.107513
3055.905638	5960.741500	1946.689453	326.394135
3055.905638	5960.741500	1945.715820	63.585838
3055.905638	5960.741500	1944.741211	-118.218246
3055.905638	5960.741500	1943.767578	63.036438
3055.905638	5960.741500	1942.792969	-5.971069
3055.905638	5960.741500	1941.818359	-3.877634
3055.905638	5960.741500	1940.842773	-11.622401
3055.905638	5960.741500	1939.868164	19.834827
3055.905638	5960.741500	1938.892578	114.977562
3055.905638	5960.741500	1937.916992	-79.049660
3055.905638	5960.741500	1936.941406	84.650688
3055.905638	5960.741500	1935.965820	-75.017250
3055.905638	5960.741500	1934.990234	-41.165188
3055.905638	5960.741500	1934.013672	-176.259277
3055.905638	5960.741500	1933.037109	305.582245
3055.905638	5960.741500	1932.060547	168.052734
3055.905638	5960.741500	1931.083984	20.804266
3055.905638	5960.741500	1930.107422	62.017075
3055.905638	5960.741500	1929.129883	76.330551
3055.905638	5960.741500	1928.153320	298.548798
3055.905638	5960.741500	1927.175781	173.496826
3055.905638	5960.741500	1926.198242	55.860519
3055.905638	5960.741500	1925.219727	33.628300
3055.905638	5960.741500	1924.242188	-30.098879
3055.905638	5960.741500	1923.263672	111.479134
3055.905638	5960.741500	1922.285156	-23.000441
3055.905638	5960.741500	1921.306641	3.815813
3055.905638	5960.741500	1920.328125	-132.943466
3055.905638	5960.741500	1919.349609	-262.278717
3055.905638	5960.741500	1918.370117	-103.470940
3055.905638	5960.741500	1917.391602	69.975540
3055.905638	5960.741500	1916.412109	-88.456963
3055.905638	5960.741500	1915.431641	19.150589
3055.905638	5960.741500	1914.452148	-256.189331
3055.905638	5960.741500	1913.472656	5.163562
3055.905638	5960.741500	1912.492188	-55.388680
3055.905638	5960.741500	1911.511719	-15.909253
3055.905638	5960.741500	1910.531250	-20.262178
3055.905638	5960.741500	1909.550781	36.366127
3055.905638	5960.741500	1908.569336	102.774918
3055.905638	5960.741500	1907.588867	203.320663
3055.905638	5960.741500	1906.607422	-197.853394
3055.905638	5960.741500	1905.625977	-187.280273
3055.905638	5960.741500	1904.644531	1.077626
3055.905638	5960.741500	1903.662109	-63.744415
3055.905638	5960.741500	1902.680664	92.988838
3055.905638	5960.741500	1901.698242	152.381577
3055.905638	5960.741500	1900.715820	41.502502
3055.905638	5960.741500	1899.733398	-166.581024
3055.905638	5960.741500	1898.750000	-155.660141
3055.905638	5960.741500	1897.767578	-49.863930
3055.905638	5960.741500	1896.784180	-111.803955
3055.905638	5960.741500	1895.800781	-22.976706
3055.905638	5960.741500	1894.817383	-28.913914
3055.905638	5960.741500	1893.833984	-73.680588
3055.905638	5960.741500	1892.850586	-43.082054
3055.905638	5960.741500	1891.866211	-102.319885
3055.905638	5960.741500	1890.881836	47.339272
3055.905638	5960.741500	1889.897461	19.744154
3055.905638	5960.741500	1888.913086	123.274689
3055.905638	5960.741500	1887.927734	-11.045254
3055.905638	5960.741500	1886.943359	-196.240082
3055.905638	5960.741500	1885.958008	-80.504341
3055.905638	5960.741500	1884.972656	238.966003
3055.905638	5960.741500	1883.987305	-23.697493
3055.905638	5960.741500	1883.001953	-29.221735
3055.905638	5960.741500	1882.015625	-112.300835
3055.905638	5960.741500	1881.029297	73.710678
3055.905638	5960.741500	1880.042969	10.063295
3055.905638	5960.741500	1879.056641	-26.896852
3055.905638	5960.741500	1878.070313	-138.928162
3055.905638	5960.741500	1877.083984	-8.711931
3055.905638	5960.741500	1876.096680	165.047745
3055.905638	5960.741500	1875.109375	9.477418
3055.905638	5960.741500	1874.122070	185.589996
3055.905638	5960.741500	1873.134766	-226.466858
3055.905638	5960.741500	1872.146484	29.464899
3055.905638	5960.741500	1871.159180	101.427986
3055.905638	5960.741500	1870.170898	141.908188
3055.905638	5960.741500	1869.182617	-42.549206
3055.905638	5960.741500	1868.194336	92.208183
3055.905638	5960.741500	1867.205078	-164.732147
3055.905638	5960.741500	1866.216797	-20.378222
3055.905638	5960.741500	1865.227539	-40.430130
3055.905638	5960.741500	1864.238281	-270.703949
3055.905638	5960.741500	1863.249023	146.466263
3055.905638	5960.741500	1862.259766	15.197594
3055.905638	5960.741500	1861.269531	-94.327057
3055.905638	5960.741500	1860.279297	141.387802
3055.905638	5960.741500	1859.290039	135.587784
3055.905638	5960.741500	1858.298828	54.927032
3055.905638	5960.741500	1857.308594	36.980591
3055.905638	5960.741500	1856.318359	175.797440
3055.905638	5960.741500	1855.327148	-138.953568
3055.905638	5960.741500	1854.335938	-26.802094
3055.905638	5960.741500	1853.344727	-100.410461
3055.905638	5960.741500	1852.353516	-70.400932
3055.905638	5960.741500	1851.362305	137.881577
3055.905638	5960.741500	1850.370117	324.324341
3055.905638	5960.741500	1849.377930	180.547394
3055.905638	5960.741500	1848.385742	-76.469994
3055.905638	5960.741500	1847.393555	114.485863
3055.905638	5960.741500	1846.401367	95.793701
3055.905638	5960.741500	1845.408203	132.389236
3055.905638	5960.741500	1844.415039	94.262009
3055.905638	5960.741500	1843.421875	80.118896
3055.905638	5960.741500	1842.428711	284.839630
3055.905638	5960.741500	1841.435547	133.342026
3055.905638	5960.741500	1840.441406	-90.361458
3055.905638	5960.741500	1839.448242	159.652084
3055.905638	5960.741500	1838.454102	315.689758
3055.905638	5960.741500	1837.459961	166.264374
3055.905638	5960.741500	1836.464844	223.468964
3055.905638	5960.741500	1835.470703	69.073120
3055.905638	5960.741500	1834.475586	-54.156906
3055.905638	5960.741500	1833.480469	120.385895
3055.905638	5960.741500	1832.485352	234.693710
3055.905638	5960.741500	1831.490234	259.984344
3055.905638	5960.741500	1830.495117	114.680695
3055.905638	5960.741500	1829.499023	-251.532104
3055.905638	5960.741500	1828.502930	157.382385
3055.905638	5960.741500	1827.506836	112.524887
3055.905638	5960.741500	1826.510742	120.311539
3055.905638	5960.741500	1825.513672	334.207275
3055.905638	5960.741500	1824.517578	418.382233
3055.905638	5960.741500	1823.520508	44.438881
3055.905638	5960.741500	1822.523438	-190.492584
3055.905638	5960.741500	1821.526367	58.621315
3055.905638	5960.741500	1820.529297	125.367821
3055.905638	5960.741500	1819.531250	-119.525238
3055.905638	5960.741500	1818.533203	-2.810700
3055.905638	5960.741500	1817.535156	214.269653
3055.905638	5960.741500	1816.537109	-117.214409
3055.905638	5960.741500	1815.539063	209.573532
3055.905638	5960.741500	1814.540039	186.608643
3055.905638	5960.741500	1813.541992	39.038620
3055.905638	5960.741500	1812.542969	70.776108
3055.905638	5960.741500	1811.543945	90.352898
3055.905638	5960.741500	1810.543945	54.718201
3055.905638	5960.741500	1809.544922	-19.346916
3055.905638	5960.741500	1808.544922	61.812084
3055.905638	5960.741500	1807.544922	166.646774
3055.905638	5960.741500	1806.544922	65.715576
3055.905638	5960.741500	1805.544922	210.729279
3055.905638	5960.741500	1804.544922	290.982666
3055.905638	5960.741500	1803.543945	189.467896
3055.905638	5960.741500	1802.542969	226.289978
3055.905638	5960.741500	1801.541992	76.655014
3055.905638	5960.741500	1800.541016	-65.972122
3055.905638	5960.741500	1799.539063	8.418579
3055.905638	5960.741500	1798.538086	111.208603
3055.905638	5960.741500	1797.536133	261.448975
3055.905638	5960.741500	1796.534180	46.457153
3055.905638	5960.741500	1795.532227	136.588867
3055.905638	5960.741500	1794.529297	-62.061756
3055.905638	5960.741500	1793.527344	270.772858
3055.905638	5960.741500	1792.524414	138.458221
3055.905638	5960.741500	1791.521484	132.267197
3055.905638	5960.741500	1790.518555	61.517632
3055.905638	5960.741500	1789.514648	83.456078
3055.905638	5960.741500	1788.511719	114.690407
3055.905638	5960.741500	1787.507813	117.091995
3055.905638	5960.741500	1786.503906	233.534592
3055.905638	5960.741500	1785.500000	-19.260393
3055.905638	5960.741500	1784.496094	241.861084
3055.905638	5960.741500	1783.491211	188.541977
3055.905638	5960.741500	1782.486328	111.210808
3055.905638	5960.741500	1781.481445	74.100883
3055.905638	5960.741500	1780.476563	-124.949951
3055.905638	5960.741500	1779.471680	-60.251282
3055.905638	5960.741500	1778.465820	92.118187
3055.905638	5960.741500	1777.460938	61.185917
3055.905638	5960.741500	1776.455078	-131.584595
3055.905638	5960.741500	1775.449219	-48.934746
3055.905638	5960.741500	1774.442383	-11.713531
3055.905638	5960.741500	1773.436523	8.632025
3055.905638	5960.741500	1772.429688	26.327372
3055.905638	5960.741500	1771.422852	48.511162
3055.905638	5960.741500	1770.416016	44.322468
3055.905638	5960.741500	1769.409180	-93.015594
3055.905638	5960.741500	1768.402344	56.538494
3055.905638	5960.741500	1767.394531	65.802338
3055.905638	5960.741500	1766.386719	27.369143
3055.905638	5960.741500	1765.378906	242.427048
3055.905638	5960.741500	1764.371094	-71.563301
3055.905638	5960.741500	1763.362305	131.046951
3055.905638	5960.741500	1762.354492	-50.600407
3055.905638	5960.741500	1761.345703	51.891064
3055.905638	5960.741500	1760.336914	11.937583
3055.905638	5960.741500	1759.328125	-4.573211
3055.905638	5960.741500	1758.318359	288.876678
3055.905638	5960.741500	1757.308594	243.368362
3055.905638	5960.741500	1756.299805	178.697937
3055.905638	5960.741500	1755.290039	158.743530
3055.905638	5960.741500	1754.279297	325.460663
3055.905638	5960.741500	1753.269531	189.034943
3055.905638	5960.741500	1752.258789	73.671356
3055.905638	5960.741500	1751.249023	194.613266
3055.905638	5960.741500	1750.238281	218.282501
3055.905638	5960.741500	1749.226563	279.488312
3055.905638	5960.741500	1748.215820	56.791069
3055.905638	5960.741500	1747.204102	25.320292
3055.905638	5960.741500	1746.193359	-27.641893
3055.905638	5960.741500	1745.181641	11.268507
3055.905638	5960.741500	1744.168945	47.522087
3055.905638	5960.741500	1743.157227	-13.292755
3055.905638	5960.741500	1742.144531	175.899551
3055.905638	5960.741500	1741.132813	3.625942
3055.905638	5960.741500	1740.120117	201.672058
3055.905638	5960.741500	1739.106445	-77.280334
3055.905638	5960.741500	1738.093750	-59.101189
3055.905638	5960.741500	1737.080078	10.685256
3055.905638	5960.741500	1736.067383	169.830185
3055.905638	5960.741500	1735.053711	88.140549
3055.905638	5960.741500	1734.040039	-97.494202
3055.905638	5960.741500	1733.025391	-337.540466
3055.905638	5960.741500	1732.011719	-186.546768
3055.905638	5960.741500	1730.997070	-64.156113
3055.905638	5960.741500	1729.982422	258.163666
3055.905638	5960.741500	1728.967773	116.154999
3055.905638	5960.741500	1727.952148	-136.739258
3055.905638	5960.741500	1726.937500	147.006104
3055.905638	5960.741500	1725.921875	-94.516655
3055.905638	5960.741500	1724.906250	-180.868774
3055.905638	5960.741500	1723.890625	-105.081055
3055.905638	5960.741500	1722.875000	3.372404
3055.905638	5960.741500	1721.858398	-137.789307
3055.905638	5960.741500	1720.841797	-274.430115
3055.905638	5960.741500	1719.825195	-107.966385
3055.905638	5960.741500	1718.808594	-64.032227
3055.905638	5960.741500	1717.791992	38.407223
3055.905638	5960.741500	1716.774414	100.604347
3055.905638	5960.741500	1715.756836	169.596893
3055.905638	5960.741500	1714.739258	-27.083097
3055.905638	5960.741500	1713.721680	81.374786
3055.905638	5960.741500	1712.704102	-64.008095
3055.905638	5960.741500	1711.685547	-59.347374
3055.905638	5960.741500	1710.667969	-33.758842
3055.905638	5960.741500	1709.649414	19.732210
3055.905638	5960.741500	1708.630859	241.905441
3055.905638	5960.741500	1707.611328	123.627953
3055.905638	5960.741500	1706.592773	-100.324684
3055.905638	5960.741500	1705.573242	36.662418
3055.905638	5960.741500	1704.553711	-159.508102
3055.905638	5960.741500	1703.534180	129.372940
3055.905638	5960.741500	1702.513672	103.888641
3055.905638	5960.741500	1701.494141	59.496326
3055.905638	5960.741500	1700.473633	164.811111
3055.905638	5960.741500	1699.453125	54.414471
3055.905638	5960.741500	1698.432617	145.242279
3055.905638	5960.741500	1697.412109	29.816404
3055.905638	5960.741500	1696.390625	103.810875
3055.905638	5960.741500	1695.369141	-61.121704
3055.905638	5960.741500	1694.347656	171.589447
3055.905638	5960.741500	1693.326172	-14.721223
3055.905638	5960.741500	1692.304688	-84.199684
3055.905638	5960.741500	1691.282227	-186.602264
3055.905638	5960.741500	1690.260742	19.507032
3055.905638	5960.741500	1689.238281	94.423500
3055.905638	5960.741500	1688.214844	-17.866381
3055.905638	5960.741500	1687.192383	201.556808
3055.905638	5960.741500	1686.168945	100.630119
3055.905638	5960.741500	1685.146484	-9.736155
3055.905638	5960.741500	1684.123047	78.248001
3055.905638	5960.741500	1683.099609	-37.098515
3055.905638	5960.741500	1682.075195	-38.206959
3055.905638	5960.741500	1681.051758	16.578335
3055.905638	5960.741500	1680.027344	-225.203644
3055.905638	5960.741500	1679.002930	225.881897
3055.905638	5960.741500	1677.978516	170.462738
3055.905638	5960.741500	1676.953125	189.515289
3055.905638	5960.741500	1675.928711	201.458359
3055.905638	5960.741500	1674.903320	215.550446
3055.905638	5960.741500	1673.877930	178.223190
3055.905638	5960.741500	1672.852539	199.034149
3055.905638	5960.741500	1671.826172	492.273712
3055.905638	5960.741500	1670.800781	368.326813
3055.905638	5960.741500	1669.774414	216.320007
3055.905638	5960.741500	1668.748047	145.746155
3055.905638	5960.741500	1667.721680	435.942200
3055.905638	5960.741500	1666.694336	425.602448
3055.905638	5960.741500	1665.667969	338.386292
3055.905638	5960.741500	1664.640625	299.919434
3055.905638	5960.741500	1663.613281	426.529297
3055.905638	5960.741500	1662.585938	501.814636
3055.905638	5960.741500	1661.557617	611.815002
3055.905638	5960.741500	1660.530273	693.808044
3055.905638	5960.741500	1659.501953	659.408875
3055.905638	5960.741500	1658.473633	578.447388
3055.905638	5960.741500	1657.444336	855.232361
3055.905638	5960.741500	1656.416016	746.208191
3055.905638	5960.741500	1655.386719	790.405396
3055.905638	5960.741500	1654.358398	918.143555
3055.905638	5960.741500	1653.328125	1008.532043
3055.905638	5960.741500	1652.298828	1129.024414
3055.905638	5960.741500	1651.269531	1353.841675
3055.905638	5960.741500	1650.239258	1072.594971
3055.905638	5960.741500	1649.208984	1199.722290
3055.905638	5960.741500	1648.178711	1468.232666
3055.905638	5960.741500	1647.148438	1439.727173
3055.905638	5960.741500	1646.117188	1601.273682
3055.905638	5960.741500	1645.086914	1890.245728
3055.905638	5960.741500	1644.055664	1947.239136
3055.905638	5960.741500	1643.024414	1941.592651
3055.905638	5960.741500	1641.992188	1986.841187
3055.905638	5960.741500	1640.960938	2256.764404
3055.905638	5960.741500	1639.928711	1954.454468
3055.905638	5960.741500	1638.896484	2381.628906
3055.905638	5960.741500	1637.864258	2278.447021
3055.905638	5960.741500	1636.832031	2399.799316
3055.905638	5960.741500	1635.798828	2514.103027
3055.905638	5960.741500	1634.766602	2422.450684
3055.905638	5960.741500	1633.733398	2814.262207
3055.905638	5960.741500	1632.699219	2808.056641
3055.905638	5960.741500	1631.666016	3007.686035
3055.905638	5960.741500	1630.632813	2749.458740
3055.905638	5960.741500	1629.598633	3071.481934
3055.905638	5960.741500	1628.564453	3240.848389
3055.905638	5960.741500	1627.530273	3502.575195
3055.905638	5960.741500	1626.495117	3350.646240
3055.905638	5960.741500	1625.460938	3591.476074
3055.905638	5960.741500	1624.425781	3922.248779
3055.905638	5960.741500	1623.390625	3798.068604
3055.905638	5960.741500	1622.355469	4027.135986
3055.905638	5960.741500	1621.319336	3549.871094
3055.905638	5960.741500	1620.284180	3988.926270
3055.905638	5960.741500	1619.248047	3818.743164
3055.905638	5960.741500	1618.211914	4126.122070
3055.905638	5960.741500	1617.174805	3902.966553
3055.905638	5960.741500	1616.138672	4065.022949
3055.905638	5960.741500	1615.101563	3828.213867
3055.905638	5960.741500	1614.065430	4163.164063
3055.905638	5960.741500	1613.027344	3921.875732
3055.905638	5960.741500	1611.990234	4314.337402
3055.905638	5960.741500	1610.953125	4248.314941
3055.905638	5960.741500	1609.915039	4368.882813
3055.905638	5960.741500	1608.876953	4623.012207
3055.905638	5960.741500	1607.838867	4738.979980
3055.905638	5960.741500	1606.800781	4986.161621
3055.905638	5960.741500	1605.761719	5090.609375
3055.905638	5960.741500	1604.723633	4937.438477
3055.905638	5960.741500	1603.684570	5014.400879
3055.905638	5960.741500	1602.644531	4946.485352
3055.905638	5960.741500	1601.605469	5002.881836
3055.905638	5960.741500	1600.566406	5151.302734
3055.905638	5960.741500	1599.526367	5033.090820
3055.905638	5960.741500	1598.486328	4928.806152
3055.905638	5960.741500	1597.446289	4992.385742
3055.905638	5960.741500	1596.405273	4902.092285
3055.905638	5960.741500	1595.365234	5103.652832
3055.905638	5960.741500	1594.324219	4937.803711
3055.905638	5960.741500	1593.283203	4955.791992
3055.905638	5960.741500	1592.242188	4826.981445
3055.905638	5960.741500	1591.200195	5214.658203
3055.905638	5960.741500	1590.159180	5109.023926
3055.905638	5960.741500	1589.117188	4925.519531
3055.905638	5960.741500	1588.075195	5001.384766
3055.905638	5960.741500	1587.032227	5102.536621
3055.905638	5960.741500	1585.990234	4759.034180
3055.905638	5960.741500	1584.947266	4819.196777
3055.905638	5960.741500	1583.904297	4840.511230
3055.905638	5960.741500	1582.861328	4788.634277
3055.905638	5960.741500	1581.818359	4649.863770
3055.905638	5960.741500	1580.775391	5026.641602
3055.905638	5960.741500	1579.731445	4695.778809
3055.905638	5960.741500	1578.687500	4470.517090
3055.905638	5960.741500	1577.643555	4511.029785
3055.905638	5960.741500	1576.598633	4334.228516
3055.905638	5960.741500	1575.554688	4475.749512
