#X		#Y		#Wave		#Intensity
2927.074149	5603.299833	1999.980469	-34.186878
2927.074149	5603.299833	1999.016602	84.529701
2927.074149	5603.299833	1998.052734	-103.489151
2927.074149	5603.299833	1997.087891	-90.866074
2927.074149	5603.299833	1996.123047	23.186228
2927.074149	5603.299833	1995.158203	139.527374
2927.074149	5603.299833	1994.193359	30.301035
2927.074149	5603.299833	1993.228516	-31.968443
2927.074149	5603.299833	1992.262695	-59.680492
2927.074149	5603.299833	1991.297852	-35.523380
2927.074149	5603.299833	1990.332031	-164.936813
2927.074149	5603.299833	1989.366211	-86.559235
2927.074149	5603.299833	1988.399414	33.739208
2927.074149	5603.299833	1987.433594	116.788239
2927.074149	5603.299833	1986.466797	-15.448964
2927.074149	5603.299833	1985.500977	-6.790968
2927.074149	5603.299833	1984.534180	214.381012
2927.074149	5603.299833	1983.567383	279.670624
2927.074149	5603.299833	1982.599609	-23.358004
2927.074149	5603.299833	1981.632813	73.917175
2927.074149	5603.299833	1980.665039	-1.838312
2927.074149	5603.299833	1979.697266	129.836456
2927.074149	5603.299833	1978.729492	73.723763
2927.074149	5603.299833	1977.761719	143.488525
2927.074149	5603.299833	1976.792969	124.306114
2927.074149	5603.299833	1975.825195	28.570187
2927.074149	5603.299833	1974.856445	186.980011
2927.074149	5603.299833	1973.887695	51.699356
2927.074149	5603.299833	1972.918945	-76.173744
2927.074149	5603.299833	1971.949219	47.512836
2927.074149	5603.299833	1970.980469	72.489624
2927.074149	5603.299833	1970.010742	8.672714
2927.074149	5603.299833	1969.041016	-3.389620
2927.074149	5603.299833	1968.071289	198.925522
2927.074149	5603.299833	1967.101563	56.193119
2927.074149	5603.299833	1966.130859	260.837982
2927.074149	5603.299833	1965.161133	41.752529
2927.074149	5603.299833	1964.190430	49.283615
2927.074149	5603.299833	1963.219727	86.342407
2927.074149	5603.299833	1962.249023	113.527817
2927.074149	5603.299833	1961.277344	10.250512
2927.074149	5603.299833	1960.306641	-38.861076
2927.074149	5603.299833	1959.334961	-60.899109
2927.074149	5603.299833	1958.363281	-53.415672
2927.074149	5603.299833	1957.391602	148.349854
2927.074149	5603.299833	1956.419922	143.493942
2927.074149	5603.299833	1955.447266	8.342769
2927.074149	5603.299833	1954.474609	-38.269333
2927.074149	5603.299833	1953.501953	74.877907
2927.074149	5603.299833	1952.529297	106.906059
2927.074149	5603.299833	1951.556641	141.384857
2927.074149	5603.299833	1950.583984	-52.561329
2927.074149	5603.299833	1949.610352	146.481140
2927.074149	5603.299833	1948.636719	28.736786
2927.074149	5603.299833	1947.663086	38.694981
2927.074149	5603.299833	1946.689453	65.842117
2927.074149	5603.299833	1945.715820	105.262177
2927.074149	5603.299833	1944.741211	105.426178
2927.074149	5603.299833	1943.767578	110.512909
2927.074149	5603.299833	1942.792969	164.662628
2927.074149	5603.299833	1941.818359	42.262386
2927.074149	5603.299833	1940.842773	98.889481
2927.074149	5603.299833	1939.868164	-96.949547
2927.074149	5603.299833	1938.892578	-150.560822
2927.074149	5603.299833	1937.916992	168.297882
2927.074149	5603.299833	1936.941406	11.807678
2927.074149	5603.299833	1935.965820	-95.618950
2927.074149	5603.299833	1934.990234	-46.259979
2927.074149	5603.299833	1934.013672	-124.215111
2927.074149	5603.299833	1933.037109	25.536823
2927.074149	5603.299833	1932.060547	35.747959
2927.074149	5603.299833	1931.083984	-83.713394
2927.074149	5603.299833	1930.107422	163.872574
2927.074149	5603.299833	1929.129883	66.488075
2927.074149	5603.299833	1928.153320	-150.673965
2927.074149	5603.299833	1927.175781	-3.403133
2927.074149	5603.299833	1926.198242	2.040966
2927.074149	5603.299833	1925.219727	49.057449
2927.074149	5603.299833	1924.242188	83.857468
2927.074149	5603.299833	1923.263672	8.713914
2927.074149	5603.299833	1922.285156	21.564228
2927.074149	5603.299833	1921.306641	-143.868240
2927.074149	5603.299833	1920.328125	-128.511551
2927.074149	5603.299833	1919.349609	-64.310387
2927.074149	5603.299833	1918.370117	-0.113805
2927.074149	5603.299833	1917.391602	176.346405
2927.074149	5603.299833	1916.412109	11.135186
2927.074149	5603.299833	1915.431641	-112.520378
2927.074149	5603.299833	1914.452148	-14.140348
2927.074149	5603.299833	1913.472656	115.925110
2927.074149	5603.299833	1912.492188	150.862015
2927.074149	5603.299833	1911.511719	-70.175995
2927.074149	5603.299833	1910.531250	-86.372162
2927.074149	5603.299833	1909.550781	80.225967
2927.074149	5603.299833	1908.569336	83.528969
2927.074149	5603.299833	1907.588867	-125.094986
2927.074149	5603.299833	1906.607422	211.950317
2927.074149	5603.299833	1905.625977	-101.306732
2927.074149	5603.299833	1904.644531	-234.268280
2927.074149	5603.299833	1903.662109	-118.876350
2927.074149	5603.299833	1902.680664	-176.316727
2927.074149	5603.299833	1901.698242	4.739232
2927.074149	5603.299833	1900.715820	32.464283
2927.074149	5603.299833	1899.733398	103.968857
2927.074149	5603.299833	1898.750000	-65.313148
2927.074149	5603.299833	1897.767578	-27.847975
2927.074149	5603.299833	1896.784180	46.072884
2927.074149	5603.299833	1895.800781	195.319321
2927.074149	5603.299833	1894.817383	48.030979
2927.074149	5603.299833	1893.833984	19.855305
2927.074149	5603.299833	1892.850586	15.982687
2927.074149	5603.299833	1891.866211	-148.190201
2927.074149	5603.299833	1890.881836	37.377365
2927.074149	5603.299833	1889.897461	215.588623
2927.074149	5603.299833	1888.913086	15.048937
2927.074149	5603.299833	1887.927734	69.411774
2927.074149	5603.299833	1886.943359	-63.093948
2927.074149	5603.299833	1885.958008	-1.471809
2927.074149	5603.299833	1884.972656	-53.885254
2927.074149	5603.299833	1883.987305	148.352112
2927.074149	5603.299833	1883.001953	98.333870
2927.074149	5603.299833	1882.015625	-38.949718
2927.074149	5603.299833	1881.029297	155.864273
2927.074149	5603.299833	1880.042969	149.453415
2927.074149	5603.299833	1879.056641	4.924930
2927.074149	5603.299833	1878.070313	119.634125
2927.074149	5603.299833	1877.083984	-44.244389
2927.074149	5603.299833	1876.096680	17.120327
2927.074149	5603.299833	1875.109375	49.390076
2927.074149	5603.299833	1874.122070	11.427938
2927.074149	5603.299833	1873.134766	-99.148125
2927.074149	5603.299833	1872.146484	-8.869580
2927.074149	5603.299833	1871.159180	-87.999329
2927.074149	5603.299833	1870.170898	33.637177
2927.074149	5603.299833	1869.182617	-67.289368
2927.074149	5603.299833	1868.194336	59.076302
2927.074149	5603.299833	1867.205078	25.812920
2927.074149	5603.299833	1866.216797	113.381485
2927.074149	5603.299833	1865.227539	-72.184357
2927.074149	5603.299833	1864.238281	49.128014
2927.074149	5603.299833	1863.249023	42.332077
2927.074149	5603.299833	1862.259766	-104.577271
2927.074149	5603.299833	1861.269531	-60.706036
2927.074149	5603.299833	1860.279297	4.839401
2927.074149	5603.299833	1859.290039	101.699898
2927.074149	5603.299833	1858.298828	-13.892627
2927.074149	5603.299833	1857.308594	155.239685
2927.074149	5603.299833	1856.318359	-146.164536
2927.074149	5603.299833	1855.327148	-136.351166
2927.074149	5603.299833	1854.335938	66.338310
2927.074149	5603.299833	1853.344727	150.760193
2927.074149	5603.299833	1852.353516	15.732655
2927.074149	5603.299833	1851.362305	249.468430
2927.074149	5603.299833	1850.370117	83.046631
2927.074149	5603.299833	1849.377930	-133.957947
2927.074149	5603.299833	1848.385742	46.523884
2927.074149	5603.299833	1847.393555	214.842590
2927.074149	5603.299833	1846.401367	192.816406
2927.074149	5603.299833	1845.408203	161.112076
2927.074149	5603.299833	1844.415039	201.572296
2927.074149	5603.299833	1843.421875	13.335633
2927.074149	5603.299833	1842.428711	-20.897814
2927.074149	5603.299833	1841.435547	-112.915230
2927.074149	5603.299833	1840.441406	276.082703
2927.074149	5603.299833	1839.448242	111.777367
2927.074149	5603.299833	1838.454102	53.258633
2927.074149	5603.299833	1837.459961	-29.341290
2927.074149	5603.299833	1836.464844	-61.506485
2927.074149	5603.299833	1835.470703	160.987900
2927.074149	5603.299833	1834.475586	83.017456
2927.074149	5603.299833	1833.480469	149.129684
2927.074149	5603.299833	1832.485352	56.642982
2927.074149	5603.299833	1831.490234	81.775139
2927.074149	5603.299833	1830.495117	200.452957
2927.074149	5603.299833	1829.499023	275.807190
2927.074149	5603.299833	1828.502930	291.064453
2927.074149	5603.299833	1827.506836	123.891861
2927.074149	5603.299833	1826.510742	26.273840
2927.074149	5603.299833	1825.513672	96.503029
2927.074149	5603.299833	1824.517578	111.477814
2927.074149	5603.299833	1823.520508	210.279388
2927.074149	5603.299833	1822.523438	-43.405128
2927.074149	5603.299833	1821.526367	177.456635
2927.074149	5603.299833	1820.529297	50.709576
2927.074149	5603.299833	1819.531250	-88.053276
2927.074149	5603.299833	1818.533203	-128.641525
2927.074149	5603.299833	1817.535156	-6.449493
2927.074149	5603.299833	1816.537109	84.483986
2927.074149	5603.299833	1815.539063	-37.758812
2927.074149	5603.299833	1814.540039	86.480232
2927.074149	5603.299833	1813.541992	59.829906
2927.074149	5603.299833	1812.542969	71.379585
2927.074149	5603.299833	1811.543945	137.855499
2927.074149	5603.299833	1810.543945	103.763130
2927.074149	5603.299833	1809.544922	7.427335
2927.074149	5603.299833	1808.544922	61.650726
2927.074149	5603.299833	1807.544922	77.517357
2927.074149	5603.299833	1806.544922	229.507080
2927.074149	5603.299833	1805.544922	108.957230
2927.074149	5603.299833	1804.544922	9.859407
2927.074149	5603.299833	1803.543945	204.486191
2927.074149	5603.299833	1802.542969	69.394806
2927.074149	5603.299833	1801.541992	65.577888
2927.074149	5603.299833	1800.541016	-19.496307
2927.074149	5603.299833	1799.539063	76.749176
2927.074149	5603.299833	1798.538086	98.892296
2927.074149	5603.299833	1797.536133	147.169418
2927.074149	5603.299833	1796.534180	288.359100
2927.074149	5603.299833	1795.532227	240.991226
2927.074149	5603.299833	1794.529297	88.622810
2927.074149	5603.299833	1793.527344	-54.245296
2927.074149	5603.299833	1792.524414	167.515015
2927.074149	5603.299833	1791.521484	141.251205
2927.074149	5603.299833	1790.518555	83.923874
2927.074149	5603.299833	1789.514648	-13.985499
2927.074149	5603.299833	1788.511719	114.310097
2927.074149	5603.299833	1787.507813	273.405670
2927.074149	5603.299833	1786.503906	-36.679840
2927.074149	5603.299833	1785.500000	43.628506
2927.074149	5603.299833	1784.496094	-95.148041
2927.074149	5603.299833	1783.491211	113.420723
2927.074149	5603.299833	1782.486328	19.673523
2927.074149	5603.299833	1781.481445	37.651184
2927.074149	5603.299833	1780.476563	38.871120
2927.074149	5603.299833	1779.471680	30.475763
2927.074149	5603.299833	1778.465820	-73.113876
2927.074149	5603.299833	1777.460938	-76.939514
2927.074149	5603.299833	1776.455078	144.875122
2927.074149	5603.299833	1775.449219	124.163689
2927.074149	5603.299833	1774.442383	150.856644
2927.074149	5603.299833	1773.436523	236.815460
2927.074149	5603.299833	1772.429688	113.674484
2927.074149	5603.299833	1771.422852	59.322525
2927.074149	5603.299833	1770.416016	-68.695496
2927.074149	5603.299833	1769.409180	-144.561188
2927.074149	5603.299833	1768.402344	16.766495
2927.074149	5603.299833	1767.394531	-142.332367
2927.074149	5603.299833	1766.386719	32.946648
2927.074149	5603.299833	1765.378906	113.199333
2927.074149	5603.299833	1764.371094	65.289078
2927.074149	5603.299833	1763.362305	-41.976635
2927.074149	5603.299833	1762.354492	82.960365
2927.074149	5603.299833	1761.345703	-62.390617
2927.074149	5603.299833	1760.336914	-15.895355
2927.074149	5603.299833	1759.328125	134.697311
2927.074149	5603.299833	1758.318359	-160.099487
2927.074149	5603.299833	1757.308594	-40.533997
2927.074149	5603.299833	1756.299805	220.926208
2927.074149	5603.299833	1755.290039	-145.035843
2927.074149	5603.299833	1754.279297	-132.350815
2927.074149	5603.299833	1753.269531	24.556969
2927.074149	5603.299833	1752.258789	-15.043050
2927.074149	5603.299833	1751.249023	28.054142
2927.074149	5603.299833	1750.238281	23.731874
2927.074149	5603.299833	1749.226563	26.390602
2927.074149	5603.299833	1748.215820	47.864868
2927.074149	5603.299833	1747.204102	137.752335
2927.074149	5603.299833	1746.193359	-133.989990
2927.074149	5603.299833	1745.181641	-18.319485
2927.074149	5603.299833	1744.168945	26.339201
2927.074149	5603.299833	1743.157227	-33.011383
2927.074149	5603.299833	1742.144531	-71.202179
2927.074149	5603.299833	1741.132813	126.585190
2927.074149	5603.299833	1740.120117	-102.986404
2927.074149	5603.299833	1739.106445	56.757084
2927.074149	5603.299833	1738.093750	-19.564583
2927.074149	5603.299833	1737.080078	40.838882
2927.074149	5603.299833	1736.067383	-165.352798
2927.074149	5603.299833	1735.053711	88.203064
2927.074149	5603.299833	1734.040039	44.535145
2927.074149	5603.299833	1733.025391	17.275732
2927.074149	5603.299833	1732.011719	74.774261
2927.074149	5603.299833	1730.997070	-169.425079
2927.074149	5603.299833	1729.982422	24.509523
2927.074149	5603.299833	1728.967773	-132.636108
2927.074149	5603.299833	1727.952148	-4.912690
2927.074149	5603.299833	1726.937500	-100.969849
2927.074149	5603.299833	1725.921875	-8.791523
2927.074149	5603.299833	1724.906250	73.845230
2927.074149	5603.299833	1723.890625	-121.278610
2927.074149	5603.299833	1722.875000	45.854294
2927.074149	5603.299833	1721.858398	-92.934135
2927.074149	5603.299833	1720.841797	90.399750
2927.074149	5603.299833	1719.825195	57.276638
2927.074149	5603.299833	1718.808594	92.247108
2927.074149	5603.299833	1717.791992	-37.395088
2927.074149	5603.299833	1716.774414	-4.955300
2927.074149	5603.299833	1715.756836	10.941635
2927.074149	5603.299833	1714.739258	-46.065765
2927.074149	5603.299833	1713.721680	49.508690
2927.074149	5603.299833	1712.704102	-40.521660
2927.074149	5603.299833	1711.685547	-24.976152
2927.074149	5603.299833	1710.667969	42.129173
2927.074149	5603.299833	1709.649414	8.212349
2927.074149	5603.299833	1708.630859	18.805399
2927.074149	5603.299833	1707.611328	-52.796997
2927.074149	5603.299833	1706.592773	-14.210851
2927.074149	5603.299833	1705.573242	-224.275482
2927.074149	5603.299833	1704.553711	13.429147
2927.074149	5603.299833	1703.534180	-142.803040
2927.074149	5603.299833	1702.513672	195.398514
2927.074149	5603.299833	1701.494141	1.555251
2927.074149	5603.299833	1700.473633	-126.708900
2927.074149	5603.299833	1699.453125	26.052853
2927.074149	5603.299833	1698.432617	21.796589
2927.074149	5603.299833	1697.412109	17.471550
2927.074149	5603.299833	1696.390625	-87.585220
2927.074149	5603.299833	1695.369141	158.371231
2927.074149	5603.299833	1694.347656	121.047005
2927.074149	5603.299833	1693.326172	-136.229706
2927.074149	5603.299833	1692.304688	36.889786
2927.074149	5603.299833	1691.282227	-54.383667
2927.074149	5603.299833	1690.260742	216.723755
2927.074149	5603.299833	1689.238281	-40.642750
2927.074149	5603.299833	1688.214844	-43.237148
2927.074149	5603.299833	1687.192383	73.293839
2927.074149	5603.299833	1686.168945	149.990616
2927.074149	5603.299833	1685.146484	-30.320667
2927.074149	5603.299833	1684.123047	130.324051
2927.074149	5603.299833	1683.099609	253.492706
2927.074149	5603.299833	1682.075195	108.086220
2927.074149	5603.299833	1681.051758	46.719227
2927.074149	5603.299833	1680.027344	227.997025
2927.074149	5603.299833	1679.002930	206.175308
2927.074149	5603.299833	1677.978516	198.306976
2927.074149	5603.299833	1676.953125	120.413834
2927.074149	5603.299833	1675.928711	385.280914
2927.074149	5603.299833	1674.903320	186.059021
2927.074149	5603.299833	1673.877930	180.328323
2927.074149	5603.299833	1672.852539	179.214981
2927.074149	5603.299833	1671.826172	166.394958
2927.074149	5603.299833	1670.800781	493.657562
2927.074149	5603.299833	1669.774414	224.503891
2927.074149	5603.299833	1668.748047	386.203735
2927.074149	5603.299833	1667.721680	536.161621
2927.074149	5603.299833	1666.694336	457.895172
2927.074149	5603.299833	1665.667969	586.761414
2927.074149	5603.299833	1664.640625	594.535645
2927.074149	5603.299833	1663.613281	541.787537
2927.074149	5603.299833	1662.585938	658.817139
2927.074149	5603.299833	1661.557617	831.565918
2927.074149	5603.299833	1660.530273	927.507324
2927.074149	5603.299833	1659.501953	723.501282
2927.074149	5603.299833	1658.473633	940.207642
2927.074149	5603.299833	1657.444336	608.408386
2927.074149	5603.299833	1656.416016	834.293152
2927.074149	5603.299833	1655.386719	871.910217
2927.074149	5603.299833	1654.358398	830.545776
2927.074149	5603.299833	1653.328125	696.271118
2927.074149	5603.299833	1652.298828	708.291016
2927.074149	5603.299833	1651.269531	926.852295
2927.074149	5603.299833	1650.239258	1115.129517
2927.074149	5603.299833	1649.208984	1041.150024
2927.074149	5603.299833	1648.178711	1138.834717
2927.074149	5603.299833	1647.148438	1113.553223
2927.074149	5603.299833	1646.117188	1127.669556
2927.074149	5603.299833	1645.086914	1285.517090
2927.074149	5603.299833	1644.055664	1097.924072
2927.074149	5603.299833	1643.024414	1327.519287
2927.074149	5603.299833	1641.992188	1411.036987
2927.074149	5603.299833	1640.960938	1427.352417
2927.074149	5603.299833	1639.928711	1441.326172
2927.074149	5603.299833	1638.896484	1281.622192
2927.074149	5603.299833	1637.864258	1710.017212
2927.074149	5603.299833	1636.832031	1466.990845
2927.074149	5603.299833	1635.798828	1529.519653
2927.074149	5603.299833	1634.766602	1376.860718
2927.074149	5603.299833	1633.733398	1476.399048
2927.074149	5603.299833	1632.699219	1721.598877
2927.074149	5603.299833	1631.666016	1488.051392
2927.074149	5603.299833	1630.632813	1601.396851
2927.074149	5603.299833	1629.598633	1439.618530
2927.074149	5603.299833	1628.564453	1717.016113
2927.074149	5603.299833	1627.530273	1723.973755
2927.074149	5603.299833	1626.495117	1758.645508
2927.074149	5603.299833	1625.460938	1509.235596
2927.074149	5603.299833	1624.425781	1555.508179
2927.074149	5603.299833	1623.390625	1747.234497
2927.074149	5603.299833	1622.355469	1682.672729
2927.074149	5603.299833	1621.319336	1814.311890
2927.074149	5603.299833	1620.284180	1957.471436
2927.074149	5603.299833	1619.248047	1789.130615
2927.074149	5603.299833	1618.211914	1948.412842
2927.074149	5603.299833	1617.174805	2052.291748
2927.074149	5603.299833	1616.138672	1904.850464
2927.074149	5603.299833	1615.101563	1955.726318
2927.074149	5603.299833	1614.065430	1992.795776
2927.074149	5603.299833	1613.027344	1933.065796
2927.074149	5603.299833	1611.990234	1983.989990
2927.074149	5603.299833	1610.953125	2269.875244
2927.074149	5603.299833	1609.915039	2062.825195
2927.074149	5603.299833	1608.876953	2159.825439
2927.074149	5603.299833	1607.838867	2038.121460
2927.074149	5603.299833	1606.800781	2043.090576
2927.074149	5603.299833	1605.761719	1886.995605
2927.074149	5603.299833	1604.723633	1940.382568
2927.074149	5603.299833	1603.684570	2159.394531
2927.074149	5603.299833	1602.644531	1911.476318
2927.074149	5603.299833	1601.605469	1817.770020
2927.074149	5603.299833	1600.566406	2018.409912
2927.074149	5603.299833	1599.526367	2012.135010
2927.074149	5603.299833	1598.486328	2038.080933
2927.074149	5603.299833	1597.446289	1882.550415
2927.074149	5603.299833	1596.405273	1759.274780
2927.074149	5603.299833	1595.365234	1553.427979
2927.074149	5603.299833	1594.324219	1641.619751
2927.074149	5603.299833	1593.283203	1817.068359
2927.074149	5603.299833	1592.242188	1841.006470
2927.074149	5603.299833	1591.200195	1486.313110
2927.074149	5603.299833	1590.159180	1781.161377
2927.074149	5603.299833	1589.117188	1495.549438
2927.074149	5603.299833	1588.075195	1671.113281
2927.074149	5603.299833	1587.032227	1440.770020
2927.074149	5603.299833	1585.990234	1412.344971
2927.074149	5603.299833	1584.947266	1569.648926
2927.074149	5603.299833	1583.904297	1594.028687
2927.074149	5603.299833	1582.861328	1313.714844
2927.074149	5603.299833	1581.818359	1512.368408
2927.074149	5603.299833	1580.775391	1335.378418
2927.074149	5603.299833	1579.731445	1595.896851
2927.074149	5603.299833	1578.687500	1611.399658
2927.074149	5603.299833	1577.643555	1480.463379
2927.074149	5603.299833	1576.598633	1207.738159
2927.074149	5603.299833	1575.554688	1459.200073
2927.074149	5603.299833	1574.509766	1511.587036
