#X		#Y		#Wave		#Intensity
29595.893085	-1522.655000	1999.980469	32.065430
29595.893085	-1522.655000	1999.016602	-207.283463
29595.893085	-1522.655000	1998.052734	18.852091
29595.893085	-1522.655000	1997.087891	85.481110
29595.893085	-1522.655000	1996.123047	-91.542702
29595.893085	-1522.655000	1995.158203	99.808449
29595.893085	-1522.655000	1994.193359	-160.452728
29595.893085	-1522.655000	1993.228516	73.891144
29595.893085	-1522.655000	1992.262695	-86.226227
29595.893085	-1522.655000	1991.297852	-39.074326
29595.893085	-1522.655000	1990.332031	-54.488510
29595.893085	-1522.655000	1989.366211	-85.413147
29595.893085	-1522.655000	1988.399414	-109.542801
29595.893085	-1522.655000	1987.433594	-13.101009
29595.893085	-1522.655000	1986.466797	6.037765
29595.893085	-1522.655000	1985.500977	22.096081
29595.893085	-1522.655000	1984.534180	321.880829
29595.893085	-1522.655000	1983.567383	-24.116068
29595.893085	-1522.655000	1982.599609	106.432419
29595.893085	-1522.655000	1981.632813	93.098694
29595.893085	-1522.655000	1980.665039	158.320511
29595.893085	-1522.655000	1979.697266	37.788898
29595.893085	-1522.655000	1978.729492	109.443161
29595.893085	-1522.655000	1977.761719	150.985947
29595.893085	-1522.655000	1976.792969	43.966908
29595.893085	-1522.655000	1975.825195	62.426113
29595.893085	-1522.655000	1974.856445	193.979202
29595.893085	-1522.655000	1973.887695	263.407928
29595.893085	-1522.655000	1972.918945	117.829346
29595.893085	-1522.655000	1971.949219	100.180153
29595.893085	-1522.655000	1970.980469	161.082962
29595.893085	-1522.655000	1970.010742	7.144083
29595.893085	-1522.655000	1969.041016	143.781464
29595.893085	-1522.655000	1968.071289	11.436799
29595.893085	-1522.655000	1967.101563	110.444099
29595.893085	-1522.655000	1966.130859	-103.734322
29595.893085	-1522.655000	1965.161133	14.390540
29595.893085	-1522.655000	1964.190430	-3.235753
29595.893085	-1522.655000	1963.219727	237.405533
29595.893085	-1522.655000	1962.249023	123.238808
29595.893085	-1522.655000	1961.277344	149.165146
29595.893085	-1522.655000	1960.306641	-122.886703
29595.893085	-1522.655000	1959.334961	133.900986
29595.893085	-1522.655000	1958.363281	-22.855455
29595.893085	-1522.655000	1957.391602	221.124527
29595.893085	-1522.655000	1956.419922	-51.534061
29595.893085	-1522.655000	1955.447266	27.284964
29595.893085	-1522.655000	1954.474609	344.331573
29595.893085	-1522.655000	1953.501953	191.720291
29595.893085	-1522.655000	1952.529297	-39.607437
29595.893085	-1522.655000	1951.556641	-20.416435
29595.893085	-1522.655000	1950.583984	23.198137
29595.893085	-1522.655000	1949.610352	103.504539
29595.893085	-1522.655000	1948.636719	119.831398
29595.893085	-1522.655000	1947.663086	111.496010
29595.893085	-1522.655000	1946.689453	41.706066
29595.893085	-1522.655000	1945.715820	106.811623
29595.893085	-1522.655000	1944.741211	-51.455746
29595.893085	-1522.655000	1943.767578	109.142441
29595.893085	-1522.655000	1942.792969	70.953369
29595.893085	-1522.655000	1941.818359	260.750244
29595.893085	-1522.655000	1940.842773	148.870056
29595.893085	-1522.655000	1939.868164	76.200455
29595.893085	-1522.655000	1938.892578	-8.747594
29595.893085	-1522.655000	1937.916992	53.305470
29595.893085	-1522.655000	1936.941406	-134.575226
29595.893085	-1522.655000	1935.965820	-18.704632
29595.893085	-1522.655000	1934.990234	75.056244
29595.893085	-1522.655000	1934.013672	-76.080177
29595.893085	-1522.655000	1933.037109	-92.541084
29595.893085	-1522.655000	1932.060547	62.314930
29595.893085	-1522.655000	1931.083984	-223.354294
29595.893085	-1522.655000	1930.107422	-0.038509
29595.893085	-1522.655000	1929.129883	10.381085
29595.893085	-1522.655000	1928.153320	23.253527
29595.893085	-1522.655000	1927.175781	-49.455612
29595.893085	-1522.655000	1926.198242	71.009010
29595.893085	-1522.655000	1925.219727	142.555725
29595.893085	-1522.655000	1924.242188	116.347298
29595.893085	-1522.655000	1923.263672	209.892822
29595.893085	-1522.655000	1922.285156	-50.789333
29595.893085	-1522.655000	1921.306641	3.729661
29595.893085	-1522.655000	1920.328125	24.074778
29595.893085	-1522.655000	1919.349609	-41.007072
29595.893085	-1522.655000	1918.370117	-27.914930
29595.893085	-1522.655000	1917.391602	-122.170998
29595.893085	-1522.655000	1916.412109	161.873993
29595.893085	-1522.655000	1915.431641	175.045700
29595.893085	-1522.655000	1914.452148	-50.782246
29595.893085	-1522.655000	1913.472656	72.272835
29595.893085	-1522.655000	1912.492188	168.507767
29595.893085	-1522.655000	1911.511719	89.232086
29595.893085	-1522.655000	1910.531250	-53.331795
29595.893085	-1522.655000	1909.550781	167.324539
29595.893085	-1522.655000	1908.569336	0.545569
29595.893085	-1522.655000	1907.588867	-285.474365
29595.893085	-1522.655000	1906.607422	-13.574264
29595.893085	-1522.655000	1905.625977	26.946985
29595.893085	-1522.655000	1904.644531	48.038719
29595.893085	-1522.655000	1903.662109	-96.345390
29595.893085	-1522.655000	1902.680664	-213.834381
29595.893085	-1522.655000	1901.698242	-70.848152
29595.893085	-1522.655000	1900.715820	35.657379
29595.893085	-1522.655000	1899.733398	-93.754639
29595.893085	-1522.655000	1898.750000	85.808800
29595.893085	-1522.655000	1897.767578	-9.384981
29595.893085	-1522.655000	1896.784180	-4.802522
29595.893085	-1522.655000	1895.800781	-80.363358
29595.893085	-1522.655000	1894.817383	104.202263
29595.893085	-1522.655000	1893.833984	57.946228
29595.893085	-1522.655000	1892.850586	-65.957550
29595.893085	-1522.655000	1891.866211	-184.890518
29595.893085	-1522.655000	1890.881836	-131.295395
29595.893085	-1522.655000	1889.897461	-33.947716
29595.893085	-1522.655000	1888.913086	-23.955107
29595.893085	-1522.655000	1887.927734	-26.032978
29595.893085	-1522.655000	1886.943359	13.213511
29595.893085	-1522.655000	1885.958008	125.293221
29595.893085	-1522.655000	1884.972656	79.736252
29595.893085	-1522.655000	1883.987305	123.994232
29595.893085	-1522.655000	1883.001953	39.795101
29595.893085	-1522.655000	1882.015625	-7.943670
29595.893085	-1522.655000	1881.029297	-176.788193
29595.893085	-1522.655000	1880.042969	-163.751892
29595.893085	-1522.655000	1879.056641	-148.233017
29595.893085	-1522.655000	1878.070313	90.209000
29595.893085	-1522.655000	1877.083984	88.848671
29595.893085	-1522.655000	1876.096680	-31.104456
29595.893085	-1522.655000	1875.109375	120.209579
29595.893085	-1522.655000	1874.122070	138.394257
29595.893085	-1522.655000	1873.134766	108.227821
29595.893085	-1522.655000	1872.146484	-105.768593
29595.893085	-1522.655000	1871.159180	36.005939
29595.893085	-1522.655000	1870.170898	39.911190
29595.893085	-1522.655000	1869.182617	-205.220825
29595.893085	-1522.655000	1868.194336	-218.087646
29595.893085	-1522.655000	1867.205078	71.283150
29595.893085	-1522.655000	1866.216797	140.650909
29595.893085	-1522.655000	1865.227539	-14.695478
29595.893085	-1522.655000	1864.238281	-61.210590
29595.893085	-1522.655000	1863.249023	22.782890
29595.893085	-1522.655000	1862.259766	-192.691071
29595.893085	-1522.655000	1861.269531	29.026556
29595.893085	-1522.655000	1860.279297	-80.052277
29595.893085	-1522.655000	1859.290039	47.507011
29595.893085	-1522.655000	1858.298828	95.417076
29595.893085	-1522.655000	1857.308594	70.961212
29595.893085	-1522.655000	1856.318359	51.376556
29595.893085	-1522.655000	1855.327148	-71.881836
29595.893085	-1522.655000	1854.335938	-9.369797
29595.893085	-1522.655000	1853.344727	45.917885
29595.893085	-1522.655000	1852.353516	45.770584
29595.893085	-1522.655000	1851.362305	21.551884
29595.893085	-1522.655000	1850.370117	31.104593
29595.893085	-1522.655000	1849.377930	-123.150795
29595.893085	-1522.655000	1848.385742	21.371910
29595.893085	-1522.655000	1847.393555	40.626080
29595.893085	-1522.655000	1846.401367	18.960583
29595.893085	-1522.655000	1845.408203	170.659698
29595.893085	-1522.655000	1844.415039	211.596848
29595.893085	-1522.655000	1843.421875	11.876747
29595.893085	-1522.655000	1842.428711	-45.793381
29595.893085	-1522.655000	1841.435547	-185.221924
29595.893085	-1522.655000	1840.441406	-47.987865
29595.893085	-1522.655000	1839.448242	125.275337
29595.893085	-1522.655000	1838.454102	101.326538
29595.893085	-1522.655000	1837.459961	22.103485
29595.893085	-1522.655000	1836.464844	123.168816
29595.893085	-1522.655000	1835.470703	216.989578
29595.893085	-1522.655000	1834.475586	140.196747
29595.893085	-1522.655000	1833.480469	145.101074
29595.893085	-1522.655000	1832.485352	186.024033
29595.893085	-1522.655000	1831.490234	18.027321
29595.893085	-1522.655000	1830.495117	202.987106
29595.893085	-1522.655000	1829.499023	-10.571099
29595.893085	-1522.655000	1828.502930	87.913490
29595.893085	-1522.655000	1827.506836	159.954742
29595.893085	-1522.655000	1826.510742	116.809692
29595.893085	-1522.655000	1825.513672	28.093662
29595.893085	-1522.655000	1824.517578	11.333456
29595.893085	-1522.655000	1823.520508	219.926498
29595.893085	-1522.655000	1822.523438	-89.347565
29595.893085	-1522.655000	1821.526367	-27.051971
29595.893085	-1522.655000	1820.529297	18.422890
29595.893085	-1522.655000	1819.531250	217.179581
29595.893085	-1522.655000	1818.533203	39.776154
29595.893085	-1522.655000	1817.535156	262.343781
29595.893085	-1522.655000	1816.537109	58.600471
29595.893085	-1522.655000	1815.539063	12.898129
29595.893085	-1522.655000	1814.540039	304.655579
29595.893085	-1522.655000	1813.541992	239.708923
29595.893085	-1522.655000	1812.542969	31.195295
29595.893085	-1522.655000	1811.543945	109.772705
29595.893085	-1522.655000	1810.543945	90.221230
29595.893085	-1522.655000	1809.544922	123.240547
29595.893085	-1522.655000	1808.544922	153.811356
29595.893085	-1522.655000	1807.544922	-52.314404
29595.893085	-1522.655000	1806.544922	-0.306241
29595.893085	-1522.655000	1805.544922	-70.227188
29595.893085	-1522.655000	1804.544922	74.832390
29595.893085	-1522.655000	1803.543945	124.245132
29595.893085	-1522.655000	1802.542969	144.928329
29595.893085	-1522.655000	1801.541992	256.276062
29595.893085	-1522.655000	1800.541016	38.101303
29595.893085	-1522.655000	1799.539063	247.166245
29595.893085	-1522.655000	1798.538086	169.745041
29595.893085	-1522.655000	1797.536133	25.489376
29595.893085	-1522.655000	1796.534180	243.795456
29595.893085	-1522.655000	1795.532227	39.831863
29595.893085	-1522.655000	1794.529297	184.005081
29595.893085	-1522.655000	1793.527344	168.332169
29595.893085	-1522.655000	1792.524414	-19.017166
29595.893085	-1522.655000	1791.521484	-22.867987
29595.893085	-1522.655000	1790.518555	187.646637
29595.893085	-1522.655000	1789.514648	28.772812
29595.893085	-1522.655000	1788.511719	-122.966774
29595.893085	-1522.655000	1787.507813	137.232758
29595.893085	-1522.655000	1786.503906	213.936462
29595.893085	-1522.655000	1785.500000	192.940079
29595.893085	-1522.655000	1784.496094	83.816711
29595.893085	-1522.655000	1783.491211	86.488922
29595.893085	-1522.655000	1782.486328	188.997696
29595.893085	-1522.655000	1781.481445	174.838104
29595.893085	-1522.655000	1780.476563	46.451519
29595.893085	-1522.655000	1779.471680	-81.968712
29595.893085	-1522.655000	1778.465820	20.161776
29595.893085	-1522.655000	1777.460938	43.737713
29595.893085	-1522.655000	1776.455078	100.483452
29595.893085	-1522.655000	1775.449219	135.738556
29595.893085	-1522.655000	1774.442383	125.757065
29595.893085	-1522.655000	1773.436523	-5.429784
29595.893085	-1522.655000	1772.429688	-20.309156
29595.893085	-1522.655000	1771.422852	5.084912
29595.893085	-1522.655000	1770.416016	13.763371
29595.893085	-1522.655000	1769.409180	36.583870
29595.893085	-1522.655000	1768.402344	225.392365
29595.893085	-1522.655000	1767.394531	-10.600490
29595.893085	-1522.655000	1766.386719	83.080605
29595.893085	-1522.655000	1765.378906	133.946716
29595.893085	-1522.655000	1764.371094	201.293121
29595.893085	-1522.655000	1763.362305	-70.458870
29595.893085	-1522.655000	1762.354492	110.466385
29595.893085	-1522.655000	1761.345703	32.941345
29595.893085	-1522.655000	1760.336914	166.195938
29595.893085	-1522.655000	1759.328125	159.550934
29595.893085	-1522.655000	1758.318359	143.331604
29595.893085	-1522.655000	1757.308594	153.062164
29595.893085	-1522.655000	1756.299805	120.082634
29595.893085	-1522.655000	1755.290039	89.376839
29595.893085	-1522.655000	1754.279297	238.420670
29595.893085	-1522.655000	1753.269531	-36.190952
29595.893085	-1522.655000	1752.258789	55.843651
29595.893085	-1522.655000	1751.249023	67.334679
29595.893085	-1522.655000	1750.238281	180.389130
29595.893085	-1522.655000	1749.226563	99.434181
29595.893085	-1522.655000	1748.215820	216.959412
29595.893085	-1522.655000	1747.204102	46.016624
29595.893085	-1522.655000	1746.193359	163.298950
29595.893085	-1522.655000	1745.181641	1.672301
29595.893085	-1522.655000	1744.168945	-141.108871
29595.893085	-1522.655000	1743.157227	-146.972839
29595.893085	-1522.655000	1742.144531	-25.452633
29595.893085	-1522.655000	1741.132813	-59.872581
29595.893085	-1522.655000	1740.120117	146.336472
29595.893085	-1522.655000	1739.106445	22.008186
29595.893085	-1522.655000	1738.093750	79.283783
29595.893085	-1522.655000	1737.080078	249.643982
29595.893085	-1522.655000	1736.067383	202.878876
29595.893085	-1522.655000	1735.053711	207.891678
29595.893085	-1522.655000	1734.040039	245.800232
29595.893085	-1522.655000	1733.025391	-110.025154
29595.893085	-1522.655000	1732.011719	-34.577705
29595.893085	-1522.655000	1730.997070	193.869339
29595.893085	-1522.655000	1729.982422	31.099339
29595.893085	-1522.655000	1728.967773	9.592981
29595.893085	-1522.655000	1727.952148	112.780754
29595.893085	-1522.655000	1726.937500	274.687134
29595.893085	-1522.655000	1725.921875	-116.716866
29595.893085	-1522.655000	1724.906250	-63.298653
29595.893085	-1522.655000	1723.890625	-57.061798
29595.893085	-1522.655000	1722.875000	57.281174
29595.893085	-1522.655000	1721.858398	107.964989
29595.893085	-1522.655000	1720.841797	33.895172
29595.893085	-1522.655000	1719.825195	2.071171
29595.893085	-1522.655000	1718.808594	28.921175
29595.893085	-1522.655000	1717.791992	234.272797
29595.893085	-1522.655000	1716.774414	65.830147
29595.893085	-1522.655000	1715.756836	153.421173
29595.893085	-1522.655000	1714.739258	-130.235794
29595.893085	-1522.655000	1713.721680	37.002384
29595.893085	-1522.655000	1712.704102	-65.933067
29595.893085	-1522.655000	1711.685547	-178.327667
29595.893085	-1522.655000	1710.667969	134.041733
29595.893085	-1522.655000	1709.649414	-27.823309
29595.893085	-1522.655000	1708.630859	-25.494417
29595.893085	-1522.655000	1707.611328	-105.371651
29595.893085	-1522.655000	1706.592773	-16.449814
29595.893085	-1522.655000	1705.573242	-68.352989
29595.893085	-1522.655000	1704.553711	55.493149
29595.893085	-1522.655000	1703.534180	50.283684
29595.893085	-1522.655000	1702.513672	-41.732368
29595.893085	-1522.655000	1701.494141	-79.909195
29595.893085	-1522.655000	1700.473633	-263.409729
29595.893085	-1522.655000	1699.453125	5.089877
29595.893085	-1522.655000	1698.432617	1.766267
29595.893085	-1522.655000	1697.412109	-102.315254
29595.893085	-1522.655000	1696.390625	-68.354294
29595.893085	-1522.655000	1695.369141	-104.702370
29595.893085	-1522.655000	1694.347656	-75.608559
29595.893085	-1522.655000	1693.326172	25.907541
29595.893085	-1522.655000	1692.304688	-24.730261
29595.893085	-1522.655000	1691.282227	-349.046112
29595.893085	-1522.655000	1690.260742	-102.832649
29595.893085	-1522.655000	1689.238281	-60.175304
29595.893085	-1522.655000	1688.214844	-5.942420
29595.893085	-1522.655000	1687.192383	-63.960342
29595.893085	-1522.655000	1686.168945	-58.969170
29595.893085	-1522.655000	1685.146484	-65.727547
29595.893085	-1522.655000	1684.123047	34.853275
29595.893085	-1522.655000	1683.099609	32.584015
29595.893085	-1522.655000	1682.075195	90.923439
29595.893085	-1522.655000	1681.051758	102.497292
29595.893085	-1522.655000	1680.027344	137.316681
29595.893085	-1522.655000	1679.002930	78.726860
29595.893085	-1522.655000	1677.978516	83.068810
29595.893085	-1522.655000	1676.953125	196.939697
29595.893085	-1522.655000	1675.928711	65.877136
29595.893085	-1522.655000	1674.903320	149.262756
29595.893085	-1522.655000	1673.877930	25.104275
29595.893085	-1522.655000	1672.852539	-96.740639
29595.893085	-1522.655000	1671.826172	81.946045
29595.893085	-1522.655000	1670.800781	148.695755
29595.893085	-1522.655000	1669.774414	194.384689
29595.893085	-1522.655000	1668.748047	56.036591
29595.893085	-1522.655000	1667.721680	89.964218
29595.893085	-1522.655000	1666.694336	284.417633
29595.893085	-1522.655000	1665.667969	280.935699
29595.893085	-1522.655000	1664.640625	365.805267
29595.893085	-1522.655000	1663.613281	485.481049
29595.893085	-1522.655000	1662.585938	195.700668
29595.893085	-1522.655000	1661.557617	429.192535
29595.893085	-1522.655000	1660.530273	362.629761
29595.893085	-1522.655000	1659.501953	240.242233
29595.893085	-1522.655000	1658.473633	366.531769
29595.893085	-1522.655000	1657.444336	511.301788
29595.893085	-1522.655000	1656.416016	226.190659
29595.893085	-1522.655000	1655.386719	43.334209
29595.893085	-1522.655000	1654.358398	241.373856
29595.893085	-1522.655000	1653.328125	351.041199
29595.893085	-1522.655000	1652.298828	516.350586
29595.893085	-1522.655000	1651.269531	242.897446
29595.893085	-1522.655000	1650.239258	419.677399
29595.893085	-1522.655000	1649.208984	382.907501
29595.893085	-1522.655000	1648.178711	104.878304
29595.893085	-1522.655000	1647.148438	186.391968
29595.893085	-1522.655000	1646.117188	413.907959
29595.893085	-1522.655000	1645.086914	506.858337
29595.893085	-1522.655000	1644.055664	354.043365
29595.893085	-1522.655000	1643.024414	813.043579
29595.893085	-1522.655000	1641.992188	558.216858
29595.893085	-1522.655000	1640.960938	643.997314
29595.893085	-1522.655000	1639.928711	308.193970
29595.893085	-1522.655000	1638.896484	461.082733
29595.893085	-1522.655000	1637.864258	634.726563
29595.893085	-1522.655000	1636.832031	854.578186
29595.893085	-1522.655000	1635.798828	854.463013
29595.893085	-1522.655000	1634.766602	868.226746
29595.893085	-1522.655000	1633.733398	740.845947
29595.893085	-1522.655000	1632.699219	641.242188
29595.893085	-1522.655000	1631.666016	819.168152
29595.893085	-1522.655000	1630.632813	668.716003
29595.893085	-1522.655000	1629.598633	740.205444
29595.893085	-1522.655000	1628.564453	832.460327
29595.893085	-1522.655000	1627.530273	864.596497
29595.893085	-1522.655000	1626.495117	838.948242
29595.893085	-1522.655000	1625.460938	697.834839
29595.893085	-1522.655000	1624.425781	789.997559
29595.893085	-1522.655000	1623.390625	847.492859
29595.893085	-1522.655000	1622.355469	916.509705
29595.893085	-1522.655000	1621.319336	710.845337
29595.893085	-1522.655000	1620.284180	789.099182
29595.893085	-1522.655000	1619.248047	927.298889
29595.893085	-1522.655000	1618.211914	903.991028
29595.893085	-1522.655000	1617.174805	689.278442
29595.893085	-1522.655000	1616.138672	908.143433
29595.893085	-1522.655000	1615.101563	831.850891
29595.893085	-1522.655000	1614.065430	737.176880
29595.893085	-1522.655000	1613.027344	681.702881
29595.893085	-1522.655000	1611.990234	700.003723
29595.893085	-1522.655000	1610.953125	868.039795
29595.893085	-1522.655000	1609.915039	713.597839
29595.893085	-1522.655000	1608.876953	655.944885
29595.893085	-1522.655000	1607.838867	743.367676
29595.893085	-1522.655000	1606.800781	621.331421
29595.893085	-1522.655000	1605.761719	635.125916
29595.893085	-1522.655000	1604.723633	803.105774
29595.893085	-1522.655000	1603.684570	499.473083
29595.893085	-1522.655000	1602.644531	798.538940
29595.893085	-1522.655000	1601.605469	685.937073
29595.893085	-1522.655000	1600.566406	681.464172
29595.893085	-1522.655000	1599.526367	1097.642456
29595.893085	-1522.655000	1598.486328	996.629395
29595.893085	-1522.655000	1597.446289	923.265259
29595.893085	-1522.655000	1596.405273	1164.667114
29595.893085	-1522.655000	1595.365234	1043.146240
29595.893085	-1522.655000	1594.324219	1112.292603
29595.893085	-1522.655000	1593.283203	1078.143555
29595.893085	-1522.655000	1592.242188	1154.229736
29595.893085	-1522.655000	1591.200195	1058.200562
