#X		#Y		#Wave		#Intensity
29651.325532	-1485.930000	1999.980469	-64.528618
29651.325532	-1485.930000	1999.016602	158.403183
29651.325532	-1485.930000	1998.052734	180.479080
29651.325532	-1485.930000	1997.087891	75.955917
29651.325532	-1485.930000	1996.123047	313.184937
29651.325532	-1485.930000	1995.158203	91.843292
29651.325532	-1485.930000	1994.193359	-104.844063
29651.325532	-1485.930000	1993.228516	-123.354424
29651.325532	-1485.930000	1992.262695	8.986589
29651.325532	-1485.930000	1991.297852	150.997421
29651.325532	-1485.930000	1990.332031	67.566376
29651.325532	-1485.930000	1989.366211	-67.967163
29651.325532	-1485.930000	1988.399414	127.902214
29651.325532	-1485.930000	1987.433594	-124.175880
29651.325532	-1485.930000	1986.466797	24.323864
29651.325532	-1485.930000	1985.500977	249.266388
29651.325532	-1485.930000	1984.534180	-32.814014
29651.325532	-1485.930000	1983.567383	107.727272
29651.325532	-1485.930000	1982.599609	253.021255
29651.325532	-1485.930000	1981.632813	-34.262520
29651.325532	-1485.930000	1980.665039	90.974236
29651.325532	-1485.930000	1979.697266	-53.178268
29651.325532	-1485.930000	1978.729492	22.375765
29651.325532	-1485.930000	1977.761719	-13.319710
29651.325532	-1485.930000	1976.792969	37.280182
29651.325532	-1485.930000	1975.825195	35.918339
29651.325532	-1485.930000	1974.856445	197.310303
29651.325532	-1485.930000	1973.887695	175.969467
29651.325532	-1485.930000	1972.918945	-55.129875
29651.325532	-1485.930000	1971.949219	236.592422
29651.325532	-1485.930000	1970.980469	5.375102
29651.325532	-1485.930000	1970.010742	33.006573
29651.325532	-1485.930000	1969.041016	23.566835
29651.325532	-1485.930000	1968.071289	336.877502
29651.325532	-1485.930000	1967.101563	48.796276
29651.325532	-1485.930000	1966.130859	169.676804
29651.325532	-1485.930000	1965.161133	-59.308868
29651.325532	-1485.930000	1964.190430	21.996395
29651.325532	-1485.930000	1963.219727	312.479370
29651.325532	-1485.930000	1962.249023	186.772858
29651.325532	-1485.930000	1961.277344	19.208376
29651.325532	-1485.930000	1960.306641	201.064819
29651.325532	-1485.930000	1959.334961	183.514954
29651.325532	-1485.930000	1958.363281	340.559906
29651.325532	-1485.930000	1957.391602	229.424881
29651.325532	-1485.930000	1956.419922	152.705261
29651.325532	-1485.930000	1955.447266	48.921368
29651.325532	-1485.930000	1954.474609	18.868237
29651.325532	-1485.930000	1953.501953	-28.420483
29651.325532	-1485.930000	1952.529297	-2.020583
29651.325532	-1485.930000	1951.556641	14.501860
29651.325532	-1485.930000	1950.583984	161.156891
29651.325532	-1485.930000	1949.610352	248.785583
29651.325532	-1485.930000	1948.636719	85.915359
29651.325532	-1485.930000	1947.663086	97.363731
29651.325532	-1485.930000	1946.689453	184.861252
29651.325532	-1485.930000	1945.715820	-27.069613
29651.325532	-1485.930000	1944.741211	146.234131
29651.325532	-1485.930000	1943.767578	-28.865128
29651.325532	-1485.930000	1942.792969	222.810028
29651.325532	-1485.930000	1941.818359	109.019302
29651.325532	-1485.930000	1940.842773	83.509377
29651.325532	-1485.930000	1939.868164	126.624092
29651.325532	-1485.930000	1938.892578	83.935051
29651.325532	-1485.930000	1937.916992	-10.206336
29651.325532	-1485.930000	1936.941406	221.492508
29651.325532	-1485.930000	1935.965820	168.977448
29651.325532	-1485.930000	1934.990234	33.213852
29651.325532	-1485.930000	1934.013672	169.261490
29651.325532	-1485.930000	1933.037109	-30.111378
29651.325532	-1485.930000	1932.060547	30.016518
29651.325532	-1485.930000	1931.083984	-17.548807
29651.325532	-1485.930000	1930.107422	137.965408
29651.325532	-1485.930000	1929.129883	264.067017
29651.325532	-1485.930000	1928.153320	30.614134
29651.325532	-1485.930000	1927.175781	-46.257778
29651.325532	-1485.930000	1926.198242	-47.312973
29651.325532	-1485.930000	1925.219727	183.841995
29651.325532	-1485.930000	1924.242188	48.344383
29651.325532	-1485.930000	1923.263672	247.643005
29651.325532	-1485.930000	1922.285156	187.926590
29651.325532	-1485.930000	1921.306641	-47.615452
29651.325532	-1485.930000	1920.328125	68.586166
29651.325532	-1485.930000	1919.349609	-103.345612
29651.325532	-1485.930000	1918.370117	-104.329033
29651.325532	-1485.930000	1917.391602	46.019863
29651.325532	-1485.930000	1916.412109	20.632212
29651.325532	-1485.930000	1915.431641	-38.890606
29651.325532	-1485.930000	1914.452148	-34.954842
29651.325532	-1485.930000	1913.472656	-184.649780
29651.325532	-1485.930000	1912.492188	2.216571
29651.325532	-1485.930000	1911.511719	40.317795
29651.325532	-1485.930000	1910.531250	205.168167
29651.325532	-1485.930000	1909.550781	21.486032
29651.325532	-1485.930000	1908.569336	179.003372
29651.325532	-1485.930000	1907.588867	-109.320282
29651.325532	-1485.930000	1906.607422	-122.293022
29651.325532	-1485.930000	1905.625977	266.559235
29651.325532	-1485.930000	1904.644531	178.083603
29651.325532	-1485.930000	1903.662109	6.895842
29651.325532	-1485.930000	1902.680664	67.003944
29651.325532	-1485.930000	1901.698242	-82.157906
29651.325532	-1485.930000	1900.715820	145.855835
29651.325532	-1485.930000	1899.733398	164.615768
29651.325532	-1485.930000	1898.750000	56.927105
29651.325532	-1485.930000	1897.767578	58.720341
29651.325532	-1485.930000	1896.784180	-119.364182
29651.325532	-1485.930000	1895.800781	59.940132
29651.325532	-1485.930000	1894.817383	66.659843
29651.325532	-1485.930000	1893.833984	58.821487
29651.325532	-1485.930000	1892.850586	53.437904
29651.325532	-1485.930000	1891.866211	72.367996
29651.325532	-1485.930000	1890.881836	-115.095497
29651.325532	-1485.930000	1889.897461	-161.647797
29651.325532	-1485.930000	1888.913086	189.940643
29651.325532	-1485.930000	1887.927734	177.373474
29651.325532	-1485.930000	1886.943359	79.907600
29651.325532	-1485.930000	1885.958008	-5.369082
29651.325532	-1485.930000	1884.972656	183.504852
29651.325532	-1485.930000	1883.987305	-30.245028
29651.325532	-1485.930000	1883.001953	51.923206
29651.325532	-1485.930000	1882.015625	-108.340477
29651.325532	-1485.930000	1881.029297	-55.227150
29651.325532	-1485.930000	1880.042969	46.356827
29651.325532	-1485.930000	1879.056641	87.353722
29651.325532	-1485.930000	1878.070313	-169.600845
29651.325532	-1485.930000	1877.083984	-7.432820
29651.325532	-1485.930000	1876.096680	278.195343
29651.325532	-1485.930000	1875.109375	125.524887
29651.325532	-1485.930000	1874.122070	23.766605
29651.325532	-1485.930000	1873.134766	-97.291641
29651.325532	-1485.930000	1872.146484	-27.125772
29651.325532	-1485.930000	1871.159180	18.844315
29651.325532	-1485.930000	1870.170898	-109.335945
29651.325532	-1485.930000	1869.182617	101.124329
29651.325532	-1485.930000	1868.194336	-26.980215
29651.325532	-1485.930000	1867.205078	4.536652
29651.325532	-1485.930000	1866.216797	-89.622200
29651.325532	-1485.930000	1865.227539	36.180622
29651.325532	-1485.930000	1864.238281	-31.329607
29651.325532	-1485.930000	1863.249023	-98.795792
29651.325532	-1485.930000	1862.259766	-11.645036
29651.325532	-1485.930000	1861.269531	-42.829716
29651.325532	-1485.930000	1860.279297	58.802071
29651.325532	-1485.930000	1859.290039	-23.036324
29651.325532	-1485.930000	1858.298828	-51.732525
29651.325532	-1485.930000	1857.308594	209.150131
29651.325532	-1485.930000	1856.318359	-82.500908
29651.325532	-1485.930000	1855.327148	161.440155
29651.325532	-1485.930000	1854.335938	149.681686
29651.325532	-1485.930000	1853.344727	109.010399
29651.325532	-1485.930000	1852.353516	90.066475
29651.325532	-1485.930000	1851.362305	80.785034
29651.325532	-1485.930000	1850.370117	30.557524
29651.325532	-1485.930000	1849.377930	-116.008369
29651.325532	-1485.930000	1848.385742	43.416973
29651.325532	-1485.930000	1847.393555	63.109459
29651.325532	-1485.930000	1846.401367	-30.364981
29651.325532	-1485.930000	1845.408203	119.364647
29651.325532	-1485.930000	1844.415039	35.568031
29651.325532	-1485.930000	1843.421875	26.418503
29651.325532	-1485.930000	1842.428711	-16.401804
29651.325532	-1485.930000	1841.435547	34.626148
29651.325532	-1485.930000	1840.441406	95.265953
29651.325532	-1485.930000	1839.448242	-62.940765
29651.325532	-1485.930000	1838.454102	67.438972
29651.325532	-1485.930000	1837.459961	279.509674
29651.325532	-1485.930000	1836.464844	10.827969
29651.325532	-1485.930000	1835.470703	95.489067
29651.325532	-1485.930000	1834.475586	-21.684347
29651.325532	-1485.930000	1833.480469	-33.116108
29651.325532	-1485.930000	1832.485352	-121.388779
29651.325532	-1485.930000	1831.490234	-144.791946
29651.325532	-1485.930000	1830.495117	23.874043
29651.325532	-1485.930000	1829.499023	77.270309
29651.325532	-1485.930000	1828.502930	130.650696
29651.325532	-1485.930000	1827.506836	181.614273
29651.325532	-1485.930000	1826.510742	-86.487938
29651.325532	-1485.930000	1825.513672	120.401672
29651.325532	-1485.930000	1824.517578	-68.450905
29651.325532	-1485.930000	1823.520508	44.857182
29651.325532	-1485.930000	1822.523438	45.461578
29651.325532	-1485.930000	1821.526367	0.529718
29651.325532	-1485.930000	1820.529297	147.308121
29651.325532	-1485.930000	1819.531250	102.373940
29651.325532	-1485.930000	1818.533203	253.866714
29651.325532	-1485.930000	1817.535156	101.159920
29651.325532	-1485.930000	1816.537109	3.578223
29651.325532	-1485.930000	1815.539063	214.844711
29651.325532	-1485.930000	1814.540039	184.289444
29651.325532	-1485.930000	1813.541992	79.557320
29651.325532	-1485.930000	1812.542969	87.311928
29651.325532	-1485.930000	1811.543945	35.255333
29651.325532	-1485.930000	1810.543945	-14.395698
29651.325532	-1485.930000	1809.544922	153.565308
29651.325532	-1485.930000	1808.544922	225.826309
29651.325532	-1485.930000	1807.544922	-15.075640
29651.325532	-1485.930000	1806.544922	329.615784
29651.325532	-1485.930000	1805.544922	93.548470
29651.325532	-1485.930000	1804.544922	287.569580
29651.325532	-1485.930000	1803.543945	335.810852
29651.325532	-1485.930000	1802.542969	312.383636
29651.325532	-1485.930000	1801.541992	64.520805
29651.325532	-1485.930000	1800.541016	315.652496
29651.325532	-1485.930000	1799.539063	163.328461
29651.325532	-1485.930000	1798.538086	216.265106
29651.325532	-1485.930000	1797.536133	247.698090
29651.325532	-1485.930000	1796.534180	155.068893
29651.325532	-1485.930000	1795.532227	393.959076
29651.325532	-1485.930000	1794.529297	303.695618
29651.325532	-1485.930000	1793.527344	265.897461
29651.325532	-1485.930000	1792.524414	285.304047
29651.325532	-1485.930000	1791.521484	130.724136
29651.325532	-1485.930000	1790.518555	-123.882790
29651.325532	-1485.930000	1789.514648	2.736018
29651.325532	-1485.930000	1788.511719	60.220150
29651.325532	-1485.930000	1787.507813	93.853859
29651.325532	-1485.930000	1786.503906	-27.297173
29651.325532	-1485.930000	1785.500000	-50.825191
29651.325532	-1485.930000	1784.496094	208.846512
29651.325532	-1485.930000	1783.491211	-12.250118
29651.325532	-1485.930000	1782.486328	171.148941
29651.325532	-1485.930000	1781.481445	33.352837
29651.325532	-1485.930000	1780.476563	81.080864
29651.325532	-1485.930000	1779.471680	76.461517
29651.325532	-1485.930000	1778.465820	29.032539
29651.325532	-1485.930000	1777.460938	19.628328
29651.325532	-1485.930000	1776.455078	62.482979
29651.325532	-1485.930000	1775.449219	15.017904
29651.325532	-1485.930000	1774.442383	148.077423
29651.325532	-1485.930000	1773.436523	-132.177689
29651.325532	-1485.930000	1772.429688	131.408371
29651.325532	-1485.930000	1771.422852	337.893860
29651.325532	-1485.930000	1770.416016	278.434631
29651.325532	-1485.930000	1769.409180	105.060654
29651.325532	-1485.930000	1768.402344	64.598694
29651.325532	-1485.930000	1767.394531	97.665421
29651.325532	-1485.930000	1766.386719	54.796764
29651.325532	-1485.930000	1765.378906	23.774622
29651.325532	-1485.930000	1764.371094	-12.004848
29651.325532	-1485.930000	1763.362305	120.503662
29651.325532	-1485.930000	1762.354492	79.925369
29651.325532	-1485.930000	1761.345703	207.570908
29651.325532	-1485.930000	1760.336914	-48.651524
29651.325532	-1485.930000	1759.328125	14.960899
29651.325532	-1485.930000	1758.318359	177.983658
29651.325532	-1485.930000	1757.308594	-9.508933
29651.325532	-1485.930000	1756.299805	302.537994
29651.325532	-1485.930000	1755.290039	27.461164
29651.325532	-1485.930000	1754.279297	112.148926
29651.325532	-1485.930000	1753.269531	-77.673347
29651.325532	-1485.930000	1752.258789	49.520374
29651.325532	-1485.930000	1751.249023	122.239777
29651.325532	-1485.930000	1750.238281	22.285217
29651.325532	-1485.930000	1749.226563	-46.928574
29651.325532	-1485.930000	1748.215820	-101.964958
29651.325532	-1485.930000	1747.204102	-185.370422
29651.325532	-1485.930000	1746.193359	62.012516
29651.325532	-1485.930000	1745.181641	120.282776
29651.325532	-1485.930000	1744.168945	-100.203468
29651.325532	-1485.930000	1743.157227	-32.543419
29651.325532	-1485.930000	1742.144531	-28.689095
29651.325532	-1485.930000	1741.132813	126.205788
29651.325532	-1485.930000	1740.120117	35.559231
29651.325532	-1485.930000	1739.106445	-31.489347
29651.325532	-1485.930000	1738.093750	-15.974321
29651.325532	-1485.930000	1737.080078	93.849304
29651.325532	-1485.930000	1736.067383	69.177757
29651.325532	-1485.930000	1735.053711	162.371155
29651.325532	-1485.930000	1734.040039	29.187262
29651.325532	-1485.930000	1733.025391	-19.131029
29651.325532	-1485.930000	1732.011719	-98.098137
29651.325532	-1485.930000	1730.997070	-52.200844
29651.325532	-1485.930000	1729.982422	116.134186
29651.325532	-1485.930000	1728.967773	-42.991531
29651.325532	-1485.930000	1727.952148	61.630589
29651.325532	-1485.930000	1726.937500	-57.470547
29651.325532	-1485.930000	1725.921875	-82.411880
29651.325532	-1485.930000	1724.906250	19.701420
29651.325532	-1485.930000	1723.890625	142.917175
29651.325532	-1485.930000	1722.875000	-209.138641
29651.325532	-1485.930000	1721.858398	-8.381607
29651.325532	-1485.930000	1720.841797	30.008072
29651.325532	-1485.930000	1719.825195	171.795059
29651.325532	-1485.930000	1718.808594	31.418808
29651.325532	-1485.930000	1717.791992	-52.534706
29651.325532	-1485.930000	1716.774414	13.889912
29651.325532	-1485.930000	1715.756836	131.938446
29651.325532	-1485.930000	1714.739258	186.488861
29651.325532	-1485.930000	1713.721680	158.790237
29651.325532	-1485.930000	1712.704102	241.420776
29651.325532	-1485.930000	1711.685547	-136.122269
29651.325532	-1485.930000	1710.667969	-37.107670
29651.325532	-1485.930000	1709.649414	179.161194
29651.325532	-1485.930000	1708.630859	-97.372368
29651.325532	-1485.930000	1707.611328	-174.455322
29651.325532	-1485.930000	1706.592773	-56.886417
29651.325532	-1485.930000	1705.573242	-19.121626
29651.325532	-1485.930000	1704.553711	133.466125
29651.325532	-1485.930000	1703.534180	30.479506
29651.325532	-1485.930000	1702.513672	79.818893
29651.325532	-1485.930000	1701.494141	234.541351
29651.325532	-1485.930000	1700.473633	103.381065
29651.325532	-1485.930000	1699.453125	21.421358
29651.325532	-1485.930000	1698.432617	26.098921
29651.325532	-1485.930000	1697.412109	-34.810680
29651.325532	-1485.930000	1696.390625	-25.510723
29651.325532	-1485.930000	1695.369141	56.301014
29651.325532	-1485.930000	1694.347656	77.212616
29651.325532	-1485.930000	1693.326172	193.998703
29651.325532	-1485.930000	1692.304688	334.096985
29651.325532	-1485.930000	1691.282227	151.396851
29651.325532	-1485.930000	1690.260742	15.498084
29651.325532	-1485.930000	1689.238281	-10.517062
29651.325532	-1485.930000	1688.214844	367.767578
29651.325532	-1485.930000	1687.192383	213.115082
29651.325532	-1485.930000	1686.168945	254.730591
29651.325532	-1485.930000	1685.146484	265.937836
29651.325532	-1485.930000	1684.123047	188.364731
29651.325532	-1485.930000	1683.099609	183.171356
29651.325532	-1485.930000	1682.075195	56.558422
29651.325532	-1485.930000	1681.051758	207.709290
29651.325532	-1485.930000	1680.027344	179.088577
29651.325532	-1485.930000	1679.002930	75.791077
29651.325532	-1485.930000	1677.978516	303.737976
29651.325532	-1485.930000	1676.953125	230.712952
29651.325532	-1485.930000	1675.928711	306.922058
29651.325532	-1485.930000	1674.903320	191.905914
29651.325532	-1485.930000	1673.877930	228.409821
29651.325532	-1485.930000	1672.852539	369.739807
29651.325532	-1485.930000	1671.826172	280.321960
29651.325532	-1485.930000	1670.800781	274.775787
29651.325532	-1485.930000	1669.774414	343.731476
29651.325532	-1485.930000	1668.748047	289.218689
29651.325532	-1485.930000	1667.721680	411.640137
29651.325532	-1485.930000	1666.694336	101.035149
29651.325532	-1485.930000	1665.667969	367.683594
29651.325532	-1485.930000	1664.640625	331.718445
29651.325532	-1485.930000	1663.613281	116.614792
29651.325532	-1485.930000	1662.585938	315.579102
29651.325532	-1485.930000	1661.557617	209.805878
29651.325532	-1485.930000	1660.530273	343.528381
29651.325532	-1485.930000	1659.501953	186.604935
29651.325532	-1485.930000	1658.473633	259.805725
29651.325532	-1485.930000	1657.444336	260.919006
29651.325532	-1485.930000	1656.416016	394.435944
29651.325532	-1485.930000	1655.386719	476.776337
29651.325532	-1485.930000	1654.358398	477.786926
29651.325532	-1485.930000	1653.328125	365.000366
29651.325532	-1485.930000	1652.298828	482.057770
29651.325532	-1485.930000	1651.269531	429.622314
29651.325532	-1485.930000	1650.239258	560.503601
29651.325532	-1485.930000	1649.208984	707.556091
29651.325532	-1485.930000	1648.178711	492.675629
29651.325532	-1485.930000	1647.148438	414.690887
29651.325532	-1485.930000	1646.117188	552.354736
29651.325532	-1485.930000	1645.086914	759.499756
29651.325532	-1485.930000	1644.055664	781.120483
29651.325532	-1485.930000	1643.024414	647.453308
29651.325532	-1485.930000	1641.992188	828.919006
29651.325532	-1485.930000	1640.960938	556.276978
29651.325532	-1485.930000	1639.928711	941.470093
29651.325532	-1485.930000	1638.896484	786.973877
29651.325532	-1485.930000	1637.864258	766.800598
29651.325532	-1485.930000	1636.832031	950.312134
29651.325532	-1485.930000	1635.798828	1052.739868
29651.325532	-1485.930000	1634.766602	944.566772
29651.325532	-1485.930000	1633.733398	1086.258179
29651.325532	-1485.930000	1632.699219	1065.980591
29651.325532	-1485.930000	1631.666016	1078.076538
29651.325532	-1485.930000	1630.632813	1282.052856
29651.325532	-1485.930000	1629.598633	1414.279419
29651.325532	-1485.930000	1628.564453	1299.160889
29651.325532	-1485.930000	1627.530273	1216.428101
29651.325532	-1485.930000	1626.495117	1369.353516
29651.325532	-1485.930000	1625.460938	1496.809082
29651.325532	-1485.930000	1624.425781	1434.843872
29651.325532	-1485.930000	1623.390625	1772.325317
29651.325532	-1485.930000	1622.355469	1525.648438
29651.325532	-1485.930000	1621.319336	1396.764404
29651.325532	-1485.930000	1620.284180	1517.136841
29651.325532	-1485.930000	1619.248047	1556.709595
29651.325532	-1485.930000	1618.211914	1600.877197
29651.325532	-1485.930000	1617.174805	1824.899414
29651.325532	-1485.930000	1616.138672	1670.703003
29651.325532	-1485.930000	1615.101563	1544.224609
29651.325532	-1485.930000	1614.065430	1498.466309
29651.325532	-1485.930000	1613.027344	1577.152100
29651.325532	-1485.930000	1611.990234	1595.909668
29651.325532	-1485.930000	1610.953125	1716.012329
29651.325532	-1485.930000	1609.915039	1543.586060
29651.325532	-1485.930000	1608.876953	1631.416138
29651.325532	-1485.930000	1607.838867	1585.693726
29651.325532	-1485.930000	1606.800781	1721.821655
29651.325532	-1485.930000	1605.761719	1772.753174
29651.325532	-1485.930000	1604.723633	1522.273193
29651.325532	-1485.930000	1603.684570	1400.710083
29651.325532	-1485.930000	1602.644531	1481.583252
29651.325532	-1485.930000	1601.605469	1569.332886
29651.325532	-1485.930000	1600.566406	1500.725464
29651.325532	-1485.930000	1599.526367	1572.358887
29651.325532	-1485.930000	1598.486328	1434.847412
29651.325532	-1485.930000	1597.446289	1460.529663
29651.325532	-1485.930000	1596.405273	1456.344238
29651.325532	-1485.930000	1595.365234	1571.603149
29651.325532	-1485.930000	1594.324219	1638.602051
29651.325532	-1485.930000	1593.283203	1526.511963
29651.325532	-1485.930000	1592.242188	1650.900757
