#X		#Y		#Wave		#Intensity
19350.834947	16851.252500	2000.043945	112.371964
19350.834947	16851.252500	1999.080078	282.492920
19350.834947	16851.252500	1998.116211	-18.910334
19350.834947	16851.252500	1997.151367	14.378969
19350.834947	16851.252500	1996.186523	203.773300
19350.834947	16851.252500	1995.222656	-156.834473
19350.834947	16851.252500	1994.256836	-286.934875
19350.834947	16851.252500	1993.291992	226.869171
19350.834947	16851.252500	1992.327148	304.749542
19350.834947	16851.252500	1991.361328	-57.994812
19350.834947	16851.252500	1990.395508	106.575821
19350.834947	16851.252500	1989.429688	-35.734669
19350.834947	16851.252500	1988.463867	151.067062
19350.834947	16851.252500	1987.497070	-117.311768
19350.834947	16851.252500	1986.531250	165.917145
19350.834947	16851.252500	1985.564453	409.497162
19350.834947	16851.252500	1984.597656	217.897247
19350.834947	16851.252500	1983.630859	236.475998
19350.834947	16851.252500	1982.664063	-9.366955
19350.834947	16851.252500	1981.696289	325.540527
19350.834947	16851.252500	1980.728516	-154.885330
19350.834947	16851.252500	1979.761719	288.611481
19350.834947	16851.252500	1978.792969	10.888817
19350.834947	16851.252500	1977.825195	-22.301332
19350.834947	16851.252500	1976.857422	144.478836
19350.834947	16851.252500	1975.888672	444.483582
19350.834947	16851.252500	1974.919922	310.086090
19350.834947	16851.252500	1973.951172	170.807175
19350.834947	16851.252500	1972.982422	293.052338
19350.834947	16851.252500	1972.013672	217.957581
19350.834947	16851.252500	1971.043945	56.597504
19350.834947	16851.252500	1970.075195	-190.993637
19350.834947	16851.252500	1969.105469	392.171936
19350.834947	16851.252500	1968.135742	245.658890
19350.834947	16851.252500	1967.165039	205.155060
19350.834947	16851.252500	1966.195313	-20.102123
19350.834947	16851.252500	1965.224609	249.796997
19350.834947	16851.252500	1964.253906	115.733482
19350.834947	16851.252500	1963.283203	223.003540
19350.834947	16851.252500	1962.312500	59.446354
19350.834947	16851.252500	1961.341797	321.733124
19350.834947	16851.252500	1960.370117	-11.573271
19350.834947	16851.252500	1959.399414	245.696320
19350.834947	16851.252500	1958.427734	-6.310226
19350.834947	16851.252500	1957.455078	789.463074
19350.834947	16851.252500	1956.483398	357.933472
19350.834947	16851.252500	1955.511719	96.189240
19350.834947	16851.252500	1954.539063	21.345949
19350.834947	16851.252500	1953.566406	376.591431
19350.834947	16851.252500	1952.593750	336.102783
19350.834947	16851.252500	1951.621094	425.818817
19350.834947	16851.252500	1950.647461	365.671539
19350.834947	16851.252500	1949.674805	298.160370
19350.834947	16851.252500	1948.701172	-73.781776
19350.834947	16851.252500	1947.727539	30.630634
19350.834947	16851.252500	1946.753906	49.086468
19350.834947	16851.252500	1945.780273	148.501144
19350.834947	16851.252500	1944.805664	419.607330
19350.834947	16851.252500	1943.831055	354.542206
19350.834947	16851.252500	1942.856445	103.092354
19350.834947	16851.252500	1941.881836	209.720032
19350.834947	16851.252500	1940.907227	61.325077
19350.834947	16851.252500	1939.932617	-28.208334
19350.834947	16851.252500	1938.957031	56.280117
19350.834947	16851.252500	1937.981445	248.527374
19350.834947	16851.252500	1937.005859	-157.062805
19350.834947	16851.252500	1936.030273	145.331253
19350.834947	16851.252500	1935.054688	-88.708961
19350.834947	16851.252500	1934.078125	247.799042
19350.834947	16851.252500	1933.101563	-213.868607
19350.834947	16851.252500	1932.125000	171.441864
19350.834947	16851.252500	1931.148438	-23.359953
19350.834947	16851.252500	1930.171875	-254.813644
19350.834947	16851.252500	1929.194336	166.916702
19350.834947	16851.252500	1928.217773	-59.643131
19350.834947	16851.252500	1927.240234	281.149872
19350.834947	16851.252500	1926.262695	-33.404476
19350.834947	16851.252500	1925.284180	-42.323925
19350.834947	16851.252500	1924.306641	241.987885
19350.834947	16851.252500	1923.328125	298.935486
19350.834947	16851.252500	1922.350586	35.804794
19350.834947	16851.252500	1921.372070	249.031494
19350.834947	16851.252500	1920.392578	269.236115
19350.834947	16851.252500	1919.414063	11.060191
19350.834947	16851.252500	1918.434570	104.474426
19350.834947	16851.252500	1917.456055	22.089268
19350.834947	16851.252500	1916.476563	654.687744
19350.834947	16851.252500	1915.497070	123.261459
19350.834947	16851.252500	1914.516602	-22.584600
19350.834947	16851.252500	1913.537109	12.057190
19350.834947	16851.252500	1912.556641	107.618073
19350.834947	16851.252500	1911.576172	264.058502
19350.834947	16851.252500	1910.595703	18.223686
19350.834947	16851.252500	1909.615234	120.937431
19350.834947	16851.252500	1908.633789	-268.599701
19350.834947	16851.252500	1907.653320	72.797691
19350.834947	16851.252500	1906.671875	319.044830
19350.834947	16851.252500	1905.690430	87.867973
19350.834947	16851.252500	1904.708984	-187.084824
19350.834947	16851.252500	1903.727539	-70.054230
19350.834947	16851.252500	1902.745117	-28.548861
19350.834947	16851.252500	1901.762695	224.606964
19350.834947	16851.252500	1900.780273	217.305420
19350.834947	16851.252500	1899.797852	278.077332
19350.834947	16851.252500	1898.815430	61.539524
19350.834947	16851.252500	1897.832031	110.085526
19350.834947	16851.252500	1896.849609	340.899658
19350.834947	16851.252500	1895.866211	-133.295013
19350.834947	16851.252500	1894.882813	141.144241
19350.834947	16851.252500	1893.898438	315.825714
19350.834947	16851.252500	1892.915039	-116.925339
19350.834947	16851.252500	1891.930664	-73.503372
19350.834947	16851.252500	1890.947266	253.973755
19350.834947	16851.252500	1889.962891	-13.548797
19350.834947	16851.252500	1888.977539	70.971481
19350.834947	16851.252500	1887.993164	-164.952164
19350.834947	16851.252500	1887.007813	254.340073
19350.834947	16851.252500	1886.023438	260.988586
19350.834947	16851.252500	1885.038086	-103.528641
19350.834947	16851.252500	1884.051758	271.733246
19350.834947	16851.252500	1883.066406	-153.360489
19350.834947	16851.252500	1882.081055	15.608648
19350.834947	16851.252500	1881.094727	-307.566071
19350.834947	16851.252500	1880.108398	76.960014
19350.834947	16851.252500	1879.122070	-28.135641
19350.834947	16851.252500	1878.135742	360.941589
19350.834947	16851.252500	1877.148438	69.246498
19350.834947	16851.252500	1876.162109	77.879478
19350.834947	16851.252500	1875.174805	120.360588
19350.834947	16851.252500	1874.187500	-55.080410
19350.834947	16851.252500	1873.199219	-41.726761
19350.834947	16851.252500	1872.211914	-4.233552
19350.834947	16851.252500	1871.223633	-95.024445
19350.834947	16851.252500	1870.236328	-246.305099
19350.834947	16851.252500	1869.248047	61.916637
19350.834947	16851.252500	1868.258789	268.423584
19350.834947	16851.252500	1867.270508	366.010376
19350.834947	16851.252500	1866.282227	26.028410
19350.834947	16851.252500	1865.292969	169.440155
19350.834947	16851.252500	1864.303711	271.673187
19350.834947	16851.252500	1863.314453	108.090576
19350.834947	16851.252500	1862.324219	16.978891
19350.834947	16851.252500	1861.334961	-231.114624
19350.834947	16851.252500	1860.344727	387.568939
19350.834947	16851.252500	1859.354492	153.879242
19350.834947	16851.252500	1858.364258	219.486084
19350.834947	16851.252500	1857.374023	256.057190
19350.834947	16851.252500	1856.383789	-204.409531
19350.834947	16851.252500	1855.392578	-30.391533
19350.834947	16851.252500	1854.401367	-189.288788
19350.834947	16851.252500	1853.410156	109.931740
19350.834947	16851.252500	1852.418945	37.740597
19350.834947	16851.252500	1851.426758	237.880859
19350.834947	16851.252500	1850.435547	-53.704453
19350.834947	16851.252500	1849.443359	1.707255
19350.834947	16851.252500	1848.451172	114.856987
19350.834947	16851.252500	1847.458984	239.949692
19350.834947	16851.252500	1846.466797	401.059448
19350.834947	16851.252500	1845.473633	239.448593
19350.834947	16851.252500	1844.480469	212.639603
19350.834947	16851.252500	1843.487305	392.749573
19350.834947	16851.252500	1842.494141	382.651428
19350.834947	16851.252500	1841.500977	-43.686176
19350.834947	16851.252500	1840.506836	569.147278
19350.834947	16851.252500	1839.513672	251.037460
19350.834947	16851.252500	1838.519531	-204.053909
19350.834947	16851.252500	1837.525391	83.769096
19350.834947	16851.252500	1836.530273	147.909012
19350.834947	16851.252500	1835.536133	291.263672
19350.834947	16851.252500	1834.541016	492.169373
19350.834947	16851.252500	1833.545898	231.744980
19350.834947	16851.252500	1832.550781	252.349808
19350.834947	16851.252500	1831.555664	256.079498
19350.834947	16851.252500	1830.560547	372.586426
19350.834947	16851.252500	1829.564453	-118.276154
19350.834947	16851.252500	1828.568359	149.331665
19350.834947	16851.252500	1827.572266	203.236038
19350.834947	16851.252500	1826.576172	247.466232
19350.834947	16851.252500	1825.580078	-123.309784
19350.834947	16851.252500	1824.583008	124.681007
19350.834947	16851.252500	1823.585938	175.921341
19350.834947	16851.252500	1822.588867	-125.289940
19350.834947	16851.252500	1821.591797	-160.417664
19350.834947	16851.252500	1820.594727	317.196411
19350.834947	16851.252500	1819.596680	-29.563643
19350.834947	16851.252500	1818.599609	409.403198
19350.834947	16851.252500	1817.601563	524.843506
19350.834947	16851.252500	1816.603516	134.967072
19350.834947	16851.252500	1815.604492	293.392120
19350.834947	16851.252500	1814.606445	363.140106
19350.834947	16851.252500	1813.607422	162.390732
19350.834947	16851.252500	1812.608398	14.295462
19350.834947	16851.252500	1811.609375	81.489113
19350.834947	16851.252500	1810.610352	313.624115
19350.834947	16851.252500	1809.610352	165.412170
19350.834947	16851.252500	1808.611328	17.195711
19350.834947	16851.252500	1807.611328	198.841385
19350.834947	16851.252500	1806.611328	294.327118
19350.834947	16851.252500	1805.610352	583.260925
19350.834947	16851.252500	1804.610352	191.173218
19350.834947	16851.252500	1803.609375	-64.679199
19350.834947	16851.252500	1802.608398	-21.986086
19350.834947	16851.252500	1801.607422	366.838623
19350.834947	16851.252500	1800.606445	94.215012
19350.834947	16851.252500	1799.605469	36.442036
19350.834947	16851.252500	1798.603516	157.601974
19350.834947	16851.252500	1797.601563	-29.107941
19350.834947	16851.252500	1796.599609	-91.767616
19350.834947	16851.252500	1795.597656	260.511780
19350.834947	16851.252500	1794.595703	-74.119156
19350.834947	16851.252500	1793.592773	263.607117
19350.834947	16851.252500	1792.589844	188.796371
19350.834947	16851.252500	1791.587891	25.783062
19350.834947	16851.252500	1790.583984	265.439575
19350.834947	16851.252500	1789.581055	52.335316
19350.834947	16851.252500	1788.577148	451.362366
19350.834947	16851.252500	1787.574219	588.240540
19350.834947	16851.252500	1786.570313	184.562881
19350.834947	16851.252500	1785.566406	157.081985
19350.834947	16851.252500	1784.561523	308.051361
19350.834947	16851.252500	1783.557617	408.941254
19350.834947	16851.252500	1782.552734	202.840408
19350.834947	16851.252500	1781.547852	213.216522
19350.834947	16851.252500	1780.542969	66.575706
19350.834947	16851.252500	1779.538086	10.289330
19350.834947	16851.252500	1778.532227	301.044220
19350.834947	16851.252500	1777.527344	220.860062
19350.834947	16851.252500	1776.521484	119.266449
19350.834947	16851.252500	1775.515625	428.682617
19350.834947	16851.252500	1774.508789	70.433823
19350.834947	16851.252500	1773.502930	28.141815
19350.834947	16851.252500	1772.496094	-54.556801
19350.834947	16851.252500	1771.489258	233.081635
19350.834947	16851.252500	1770.482422	31.592581
19350.834947	16851.252500	1769.475586	205.089661
19350.834947	16851.252500	1768.467773	354.741669
19350.834947	16851.252500	1767.460938	271.803741
19350.834947	16851.252500	1766.453125	229.165848
19350.834947	16851.252500	1765.445313	333.521179
19350.834947	16851.252500	1764.437500	44.213879
19350.834947	16851.252500	1763.428711	56.014072
19350.834947	16851.252500	1762.420898	496.734039
19350.834947	16851.252500	1761.412109	363.802368
19350.834947	16851.252500	1760.403320	41.344170
19350.834947	16851.252500	1759.393555	131.104065
19350.834947	16851.252500	1758.384766	-127.341637
19350.834947	16851.252500	1757.375000	388.517365
19350.834947	16851.252500	1756.366211	248.392365
19350.834947	16851.252500	1755.356445	70.400902
19350.834947	16851.252500	1754.345703	95.939735
19350.834947	16851.252500	1753.335938	121.423538
19350.834947	16851.252500	1752.325195	2.555576
19350.834947	16851.252500	1751.315430	-42.993454
19350.834947	16851.252500	1750.304688	-19.998959
19350.834947	16851.252500	1749.292969	97.506172
19350.834947	16851.252500	1748.282227	11.646019
19350.834947	16851.252500	1747.270508	-15.146063
19350.834947	16851.252500	1746.259766	293.551056
19350.834947	16851.252500	1745.248047	-42.839195
19350.834947	16851.252500	1744.235352	67.253853
19350.834947	16851.252500	1743.223633	-278.496490
19350.834947	16851.252500	1742.211914	-109.455452
19350.834947	16851.252500	1741.199219	68.917816
19350.834947	16851.252500	1740.186523	-170.555344
19350.834947	16851.252500	1739.173828	-8.835388
19350.834947	16851.252500	1738.160156	-288.391327
19350.834947	16851.252500	1737.147461	-70.180199
19350.834947	16851.252500	1736.133789	-64.341705
19350.834947	16851.252500	1735.120117	-53.827732
19350.834947	16851.252500	1734.106445	-175.370193
19350.834947	16851.252500	1733.091797	75.491440
19350.834947	16851.252500	1732.078125	-128.580368
19350.834947	16851.252500	1731.063477	67.913040
19350.834947	16851.252500	1730.048828	163.006302
19350.834947	16851.252500	1729.034180	-88.180916
19350.834947	16851.252500	1728.019531	-84.997688
19350.834947	16851.252500	1727.003906	-67.729736
19350.834947	16851.252500	1725.988281	-66.977051
19350.834947	16851.252500	1724.972656	6.694513
19350.834947	16851.252500	1723.957031	-178.513336
19350.834947	16851.252500	1722.941406	8.003486
19350.834947	16851.252500	1721.924805	185.006012
19350.834947	16851.252500	1720.909180	-89.582855
19350.834947	16851.252500	1719.892578	-121.938850
19350.834947	16851.252500	1718.875977	50.193733
19350.834947	16851.252500	1717.858398	250.429352
19350.834947	16851.252500	1716.841797	-132.176025
19350.834947	16851.252500	1715.824219	18.625492
19350.834947	16851.252500	1714.806641	84.783073
19350.834947	16851.252500	1713.789063	71.041458
19350.834947	16851.252500	1712.770508	266.241577
19350.834947	16851.252500	1711.752930	-106.749817
19350.834947	16851.252500	1710.734375	74.275902
19350.834947	16851.252500	1709.715820	-195.339371
19350.834947	16851.252500	1708.697266	32.508469
19350.834947	16851.252500	1707.678711	96.044662
19350.834947	16851.252500	1706.659180	133.731125
19350.834947	16851.252500	1705.640625	370.692719
19350.834947	16851.252500	1704.621094	284.018646
19350.834947	16851.252500	1703.600586	68.436104
19350.834947	16851.252500	1702.581055	131.790710
19350.834947	16851.252500	1701.561523	218.530716
19350.834947	16851.252500	1700.541016	455.135529
19350.834947	16851.252500	1699.520508	258.343781
19350.834947	16851.252500	1698.500000	417.538940
19350.834947	16851.252500	1697.478516	515.780457
19350.834947	16851.252500	1696.458008	323.718842
19350.834947	16851.252500	1695.436523	676.999817
19350.834947	16851.252500	1694.415039	433.465515
19350.834947	16851.252500	1693.393555	126.847115
19350.834947	16851.252500	1692.372070	283.446045
19350.834947	16851.252500	1691.349609	128.942795
19350.834947	16851.252500	1690.327148	292.462860
19350.834947	16851.252500	1689.304688	441.881927
19350.834947	16851.252500	1688.282227	436.977966
19350.834947	16851.252500	1687.259766	490.484070
19350.834947	16851.252500	1686.236328	417.795624
19350.834947	16851.252500	1685.213867	256.368042
19350.834947	16851.252500	1684.190430	328.526550
19350.834947	16851.252500	1683.166016	409.982697
19350.834947	16851.252500	1682.142578	264.961548
19350.834947	16851.252500	1681.119141	297.374084
19350.834947	16851.252500	1680.094727	28.732815
19350.834947	16851.252500	1679.070313	476.456268
19350.834947	16851.252500	1678.045898	44.588100
19350.834947	16851.252500	1677.020508	538.763916
19350.834947	16851.252500	1675.996094	573.394287
19350.834947	16851.252500	1674.970703	155.728210
19350.834947	16851.252500	1673.945313	565.678406
19350.834947	16851.252500	1672.919922	220.413483
19350.834947	16851.252500	1671.893555	543.977295
19350.834947	16851.252500	1670.868164	550.604675
19350.834947	16851.252500	1669.841797	505.985962
19350.834947	16851.252500	1668.815430	410.156952
19350.834947	16851.252500	1667.789063	239.866425
19350.834947	16851.252500	1666.761719	751.660095
19350.834947	16851.252500	1665.735352	455.700562
19350.834947	16851.252500	1664.708008	439.074707
19350.834947	16851.252500	1663.680664	689.992126
19350.834947	16851.252500	1662.653320	384.922302
19350.834947	16851.252500	1661.625000	712.500854
19350.834947	16851.252500	1660.597656	635.409790
19350.834947	16851.252500	1659.569336	374.710785
19350.834947	16851.252500	1658.541016	397.664093
19350.834947	16851.252500	1657.512695	232.399399
19350.834947	16851.252500	1656.483398	601.546509
19350.834947	16851.252500	1655.455078	791.711182
19350.834947	16851.252500	1654.425781	582.369263
19350.834947	16851.252500	1653.396484	196.657913
19350.834947	16851.252500	1652.366211	280.033234
19350.834947	16851.252500	1651.336914	265.911438
19350.834947	16851.252500	1650.306641	395.678558
19350.834947	16851.252500	1649.276367	680.854553
19350.834947	16851.252500	1648.246094	615.672668
19350.834947	16851.252500	1647.215820	520.383545
19350.834947	16851.252500	1646.185547	596.732056
19350.834947	16851.252500	1645.154297	478.330688
19350.834947	16851.252500	1644.123047	709.988403
19350.834947	16851.252500	1643.091797	932.303528
19350.834947	16851.252500	1642.060547	871.886230
19350.834947	16851.252500	1641.028320	686.421326
19350.834947	16851.252500	1639.997070	797.504211
19350.834947	16851.252500	1638.964844	1038.236328
19350.834947	16851.252500	1637.931641	626.024597
19350.834947	16851.252500	1636.899414	1095.898071
19350.834947	16851.252500	1635.867188	952.338318
19350.834947	16851.252500	1634.833984	894.466064
19350.834947	16851.252500	1633.800781	931.490234
19350.834947	16851.252500	1632.767578	836.690979
19350.834947	16851.252500	1631.734375	1294.631470
19350.834947	16851.252500	1630.700195	901.604187
19350.834947	16851.252500	1629.666016	980.314270
19350.834947	16851.252500	1628.631836	802.489014
19350.834947	16851.252500	1627.597656	1440.425903
19350.834947	16851.252500	1626.563477	886.078918
19350.834947	16851.252500	1625.528320	1232.781616
19350.834947	16851.252500	1624.493164	1112.903198
19350.834947	16851.252500	1623.458008	1062.367920
19350.834947	16851.252500	1622.422852	1129.618164
19350.834947	16851.252500	1621.387695	1222.261841
19350.834947	16851.252500	1620.351563	1277.982544
19350.834947	16851.252500	1619.315430	1442.151123
19350.834947	16851.252500	1618.279297	1311.045410
19350.834947	16851.252500	1617.243164	1535.177979
19350.834947	16851.252500	1616.207031	1046.795654
19350.834947	16851.252500	1615.169922	980.501953
19350.834947	16851.252500	1614.132813	1024.907715
19350.834947	16851.252500	1613.095703	1410.382690
19350.834947	16851.252500	1612.058594	1406.386597
19350.834947	16851.252500	1611.020508	1314.898315
19350.834947	16851.252500	1609.983398	1191.249390
19350.834947	16851.252500	1608.945313	1231.174194
19350.834947	16851.252500	1607.907227	1027.099609
19350.834947	16851.252500	1606.868164	813.943848
19350.834947	16851.252500	1605.830078	1049.655640
19350.834947	16851.252500	1604.791016	1029.934448
19350.834947	16851.252500	1603.751953	1116.083740
19350.834947	16851.252500	1602.712891	917.061401
19350.834947	16851.252500	1601.673828	929.713745
19350.834947	16851.252500	1600.633789	1144.719238
19350.834947	16851.252500	1599.594727	1198.795410
19350.834947	16851.252500	1598.554688	1193.147949
19350.834947	16851.252500	1597.513672	989.957397
19350.834947	16851.252500	1596.473633	1012.023071
19350.834947	16851.252500	1595.433594	912.406250
19350.834947	16851.252500	1594.392578	1212.434082
19350.834947	16851.252500	1593.351563	1248.378418
