#X		#Y		#Wave		#Intensity
19466.356064	16952.135500	2000.043945	24.081095
19466.356064	16952.135500	1999.080078	-1.869010
19466.356064	16952.135500	1998.116211	-101.294312
19466.356064	16952.135500	1997.151367	103.822899
19466.356064	16952.135500	1996.186523	-53.194557
19466.356064	16952.135500	1995.222656	-108.905518
19466.356064	16952.135500	1994.256836	-68.274323
19466.356064	16952.135500	1993.291992	289.007599
19466.356064	16952.135500	1992.327148	120.991745
19466.356064	16952.135500	1991.361328	-151.193512
19466.356064	16952.135500	1990.395508	51.644798
19466.356064	16952.135500	1989.429688	53.713341
19466.356064	16952.135500	1988.463867	-283.412231
19466.356064	16952.135500	1987.497070	158.521790
19466.356064	16952.135500	1986.531250	144.991959
19466.356064	16952.135500	1985.564453	-190.201157
19466.356064	16952.135500	1984.597656	-11.279786
19466.356064	16952.135500	1983.630859	145.108429
19466.356064	16952.135500	1982.664063	269.098907
19466.356064	16952.135500	1981.696289	19.751862
19466.356064	16952.135500	1980.728516	-46.898655
19466.356064	16952.135500	1979.761719	165.371597
19466.356064	16952.135500	1978.792969	-128.845337
19466.356064	16952.135500	1977.825195	87.934898
19466.356064	16952.135500	1976.857422	462.441406
19466.356064	16952.135500	1975.888672	138.181793
19466.356064	16952.135500	1974.919922	33.493343
19466.356064	16952.135500	1973.951172	-19.509117
19466.356064	16952.135500	1972.982422	35.886791
19466.356064	16952.135500	1972.013672	-2.604721
19466.356064	16952.135500	1971.043945	106.723755
19466.356064	16952.135500	1970.075195	132.042816
19466.356064	16952.135500	1969.105469	181.871201
19466.356064	16952.135500	1968.135742	182.261414
19466.356064	16952.135500	1967.165039	-21.976587
19466.356064	16952.135500	1966.195313	34.861702
19466.356064	16952.135500	1965.224609	27.525955
19466.356064	16952.135500	1964.253906	-19.319841
19466.356064	16952.135500	1963.283203	133.172363
19466.356064	16952.135500	1962.312500	-29.590876
19466.356064	16952.135500	1961.341797	68.492203
19466.356064	16952.135500	1960.370117	230.427383
19466.356064	16952.135500	1959.399414	333.154388
19466.356064	16952.135500	1958.427734	-4.547983
19466.356064	16952.135500	1957.455078	336.575653
19466.356064	16952.135500	1956.483398	387.336456
19466.356064	16952.135500	1955.511719	34.811790
19466.356064	16952.135500	1954.539063	314.051361
19466.356064	16952.135500	1953.566406	128.641083
19466.356064	16952.135500	1952.593750	142.252274
19466.356064	16952.135500	1951.621094	381.802216
19466.356064	16952.135500	1950.647461	230.673935
19466.356064	16952.135500	1949.674805	349.665344
19466.356064	16952.135500	1948.701172	-49.497997
19466.356064	16952.135500	1947.727539	133.219086
19466.356064	16952.135500	1946.753906	-47.424763
19466.356064	16952.135500	1945.780273	279.903320
19466.356064	16952.135500	1944.805664	337.191010
19466.356064	16952.135500	1943.831055	313.465576
19466.356064	16952.135500	1942.856445	-41.381805
19466.356064	16952.135500	1941.881836	354.192352
19466.356064	16952.135500	1940.907227	291.135712
19466.356064	16952.135500	1939.932617	232.970169
19466.356064	16952.135500	1938.957031	216.460098
19466.356064	16952.135500	1937.981445	8.810282
19466.356064	16952.135500	1937.005859	-117.949806
19466.356064	16952.135500	1936.030273	17.388908
19466.356064	16952.135500	1935.054688	196.734650
19466.356064	16952.135500	1934.078125	106.671677
19466.356064	16952.135500	1933.101563	185.529617
19466.356064	16952.135500	1932.125000	171.335648
19466.356064	16952.135500	1931.148438	-82.679993
19466.356064	16952.135500	1930.171875	111.109375
19466.356064	16952.135500	1929.194336	3.943878
19466.356064	16952.135500	1928.217773	85.119499
19466.356064	16952.135500	1927.240234	19.546402
19466.356064	16952.135500	1926.262695	34.665245
19466.356064	16952.135500	1925.284180	228.210037
19466.356064	16952.135500	1924.306641	-245.498001
19466.356064	16952.135500	1923.328125	111.722519
19466.356064	16952.135500	1922.350586	92.591164
19466.356064	16952.135500	1921.372070	17.291126
19466.356064	16952.135500	1920.392578	159.360641
19466.356064	16952.135500	1919.414063	-6.262095
19466.356064	16952.135500	1918.434570	91.820801
19466.356064	16952.135500	1917.456055	-210.401794
19466.356064	16952.135500	1916.476563	-26.907082
19466.356064	16952.135500	1915.497070	-92.329140
19466.356064	16952.135500	1914.516602	115.481514
19466.356064	16952.135500	1913.537109	172.007690
19466.356064	16952.135500	1912.556641	148.057190
19466.356064	16952.135500	1911.576172	285.025024
19466.356064	16952.135500	1910.595703	31.954878
19466.356064	16952.135500	1909.615234	-35.801105
19466.356064	16952.135500	1908.633789	-247.275299
19466.356064	16952.135500	1907.653320	213.698380
19466.356064	16952.135500	1906.671875	19.326008
19466.356064	16952.135500	1905.690430	287.721100
19466.356064	16952.135500	1904.708984	251.684814
19466.356064	16952.135500	1903.727539	-44.794117
19466.356064	16952.135500	1902.745117	-217.021713
19466.356064	16952.135500	1901.762695	177.800888
19466.356064	16952.135500	1900.780273	-77.099442
19466.356064	16952.135500	1899.797852	105.949402
19466.356064	16952.135500	1898.815430	-109.905876
19466.356064	16952.135500	1897.832031	-379.156921
19466.356064	16952.135500	1896.849609	-244.737885
19466.356064	16952.135500	1895.866211	-39.862747
19466.356064	16952.135500	1894.882813	-56.197803
19466.356064	16952.135500	1893.898438	-16.625393
19466.356064	16952.135500	1892.915039	44.802929
19466.356064	16952.135500	1891.930664	-134.226456
19466.356064	16952.135500	1890.947266	87.500420
19466.356064	16952.135500	1889.962891	221.755859
19466.356064	16952.135500	1888.977539	125.371857
19466.356064	16952.135500	1887.993164	-162.703400
19466.356064	16952.135500	1887.007813	-191.010086
19466.356064	16952.135500	1886.023438	115.501419
19466.356064	16952.135500	1885.038086	159.947189
19466.356064	16952.135500	1884.051758	-33.276451
19466.356064	16952.135500	1883.066406	-211.871948
19466.356064	16952.135500	1882.081055	-60.686695
19466.356064	16952.135500	1881.094727	68.644844
19466.356064	16952.135500	1880.108398	-112.253151
19466.356064	16952.135500	1879.122070	72.786972
19466.356064	16952.135500	1878.135742	80.930901
19466.356064	16952.135500	1877.148438	-167.647278
19466.356064	16952.135500	1876.162109	80.291115
19466.356064	16952.135500	1875.174805	78.778145
19466.356064	16952.135500	1874.187500	11.916329
19466.356064	16952.135500	1873.199219	-30.704266
19466.356064	16952.135500	1872.211914	96.076767
19466.356064	16952.135500	1871.223633	-113.456543
19466.356064	16952.135500	1870.236328	-192.294235
19466.356064	16952.135500	1869.248047	-14.740168
19466.356064	16952.135500	1868.258789	41.859474
19466.356064	16952.135500	1867.270508	-225.499100
19466.356064	16952.135500	1866.282227	167.092438
19466.356064	16952.135500	1865.292969	42.401833
19466.356064	16952.135500	1864.303711	72.392693
19466.356064	16952.135500	1863.314453	227.990250
19466.356064	16952.135500	1862.324219	52.655544
19466.356064	16952.135500	1861.334961	-4.293059
19466.356064	16952.135500	1860.344727	61.914749
19466.356064	16952.135500	1859.354492	70.168304
19466.356064	16952.135500	1858.364258	170.127151
19466.356064	16952.135500	1857.374023	93.905891
19466.356064	16952.135500	1856.383789	94.910149
19466.356064	16952.135500	1855.392578	103.155594
19466.356064	16952.135500	1854.401367	210.269806
19466.356064	16952.135500	1853.410156	136.507965
19466.356064	16952.135500	1852.418945	-202.404007
19466.356064	16952.135500	1851.426758	-20.581364
19466.356064	16952.135500	1850.435547	79.233650
19466.356064	16952.135500	1849.443359	-52.284485
19466.356064	16952.135500	1848.451172	47.493732
19466.356064	16952.135500	1847.458984	14.762918
19466.356064	16952.135500	1846.466797	186.715729
19466.356064	16952.135500	1845.473633	144.330627
19466.356064	16952.135500	1844.480469	241.563263
19466.356064	16952.135500	1843.487305	261.739136
19466.356064	16952.135500	1842.494141	-42.933540
19466.356064	16952.135500	1841.500977	49.437141
19466.356064	16952.135500	1840.506836	281.270935
19466.356064	16952.135500	1839.513672	24.829660
19466.356064	16952.135500	1838.519531	109.891045
19466.356064	16952.135500	1837.525391	161.250671
19466.356064	16952.135500	1836.530273	159.707153
19466.356064	16952.135500	1835.536133	83.653259
19466.356064	16952.135500	1834.541016	-86.084557
19466.356064	16952.135500	1833.545898	260.672150
19466.356064	16952.135500	1832.550781	184.596451
19466.356064	16952.135500	1831.555664	96.523582
19466.356064	16952.135500	1830.560547	262.943054
19466.356064	16952.135500	1829.564453	292.467804
19466.356064	16952.135500	1828.568359	-38.010765
19466.356064	16952.135500	1827.572266	205.061340
19466.356064	16952.135500	1826.576172	229.720490
19466.356064	16952.135500	1825.580078	105.641731
19466.356064	16952.135500	1824.583008	123.074654
19466.356064	16952.135500	1823.585938	-0.979851
19466.356064	16952.135500	1822.588867	196.200165
19466.356064	16952.135500	1821.591797	141.631561
19466.356064	16952.135500	1820.594727	233.223785
19466.356064	16952.135500	1819.596680	92.372780
19466.356064	16952.135500	1818.599609	159.934921
19466.356064	16952.135500	1817.601563	172.362946
19466.356064	16952.135500	1816.603516	84.195023
19466.356064	16952.135500	1815.604492	209.094604
19466.356064	16952.135500	1814.606445	197.482758
19466.356064	16952.135500	1813.607422	185.849091
19466.356064	16952.135500	1812.608398	195.720230
19466.356064	16952.135500	1811.609375	155.322052
19466.356064	16952.135500	1810.610352	122.079712
19466.356064	16952.135500	1809.610352	165.338089
19466.356064	16952.135500	1808.611328	433.274506
19466.356064	16952.135500	1807.611328	3.104830
19466.356064	16952.135500	1806.611328	82.103928
19466.356064	16952.135500	1805.610352	168.208374
19466.356064	16952.135500	1804.610352	118.068497
19466.356064	16952.135500	1803.609375	244.661560
19466.356064	16952.135500	1802.608398	36.840763
19466.356064	16952.135500	1801.607422	17.681671
19466.356064	16952.135500	1800.606445	201.396576
19466.356064	16952.135500	1799.605469	141.557159
19466.356064	16952.135500	1798.603516	-13.745946
19466.356064	16952.135500	1797.601563	40.916874
19466.356064	16952.135500	1796.599609	176.619263
19466.356064	16952.135500	1795.597656	6.960269
19466.356064	16952.135500	1794.595703	28.078020
19466.356064	16952.135500	1793.592773	-65.284668
19466.356064	16952.135500	1792.589844	3.425100
19466.356064	16952.135500	1791.587891	215.043594
19466.356064	16952.135500	1790.583984	64.382164
19466.356064	16952.135500	1789.581055	30.456566
19466.356064	16952.135500	1788.577148	48.897243
19466.356064	16952.135500	1787.574219	331.604095
19466.356064	16952.135500	1786.570313	54.660561
19466.356064	16952.135500	1785.566406	103.887451
19466.356064	16952.135500	1784.561523	186.369064
19466.356064	16952.135500	1783.557617	140.275238
19466.356064	16952.135500	1782.552734	244.030853
19466.356064	16952.135500	1781.547852	55.130795
19466.356064	16952.135500	1780.542969	46.988705
19466.356064	16952.135500	1779.538086	343.143250
19466.356064	16952.135500	1778.532227	-178.632111
19466.356064	16952.135500	1777.527344	131.608551
19466.356064	16952.135500	1776.521484	168.404800
19466.356064	16952.135500	1775.515625	255.025299
19466.356064	16952.135500	1774.508789	63.637939
19466.356064	16952.135500	1773.502930	112.140221
19466.356064	16952.135500	1772.496094	63.217831
19466.356064	16952.135500	1771.489258	-2.360303
19466.356064	16952.135500	1770.482422	131.415268
19466.356064	16952.135500	1769.475586	-48.172558
19466.356064	16952.135500	1768.467773	-14.202261
19466.356064	16952.135500	1767.460938	-120.265877
19466.356064	16952.135500	1766.453125	226.673279
19466.356064	16952.135500	1765.445313	-159.328384
19466.356064	16952.135500	1764.437500	168.404678
19466.356064	16952.135500	1763.428711	14.754706
19466.356064	16952.135500	1762.420898	53.075569
19466.356064	16952.135500	1761.412109	-76.912956
19466.356064	16952.135500	1760.403320	8.677923
19466.356064	16952.135500	1759.393555	46.806442
19466.356064	16952.135500	1758.384766	-31.180851
19466.356064	16952.135500	1757.375000	-97.357544
19466.356064	16952.135500	1756.366211	42.386833
19466.356064	16952.135500	1755.356445	16.339813
19466.356064	16952.135500	1754.345703	-73.647354
19466.356064	16952.135500	1753.335938	16.151405
19466.356064	16952.135500	1752.325195	4.140512
19466.356064	16952.135500	1751.315430	-327.209564
19466.356064	16952.135500	1750.304688	-121.727051
19466.356064	16952.135500	1749.292969	67.070229
19466.356064	16952.135500	1748.282227	12.272260
19466.356064	16952.135500	1747.270508	-37.836201
19466.356064	16952.135500	1746.259766	-7.653197
19466.356064	16952.135500	1745.248047	27.183950
19466.356064	16952.135500	1744.235352	54.862537
19466.356064	16952.135500	1743.223633	110.805214
19466.356064	16952.135500	1742.211914	-90.680786
19466.356064	16952.135500	1741.199219	73.733055
19466.356064	16952.135500	1740.186523	-309.518188
19466.356064	16952.135500	1739.173828	-116.928673
19466.356064	16952.135500	1738.160156	77.884712
19466.356064	16952.135500	1737.147461	-26.998407
19466.356064	16952.135500	1736.133789	52.045437
19466.356064	16952.135500	1735.120117	10.748534
19466.356064	16952.135500	1734.106445	129.708618
19466.356064	16952.135500	1733.091797	111.861252
19466.356064	16952.135500	1732.078125	-207.672272
19466.356064	16952.135500	1731.063477	-138.395950
19466.356064	16952.135500	1730.048828	-80.985359
19466.356064	16952.135500	1729.034180	-30.721615
19466.356064	16952.135500	1728.019531	52.426678
19466.356064	16952.135500	1727.003906	121.359657
19466.356064	16952.135500	1725.988281	-362.937836
19466.356064	16952.135500	1724.972656	-155.225372
19466.356064	16952.135500	1723.957031	-140.588715
19466.356064	16952.135500	1722.941406	-274.221008
19466.356064	16952.135500	1721.924805	109.574532
19466.356064	16952.135500	1720.909180	46.373680
19466.356064	16952.135500	1719.892578	-47.428295
19466.356064	16952.135500	1718.875977	-289.344116
19466.356064	16952.135500	1717.858398	-197.497513
19466.356064	16952.135500	1716.841797	-246.730148
19466.356064	16952.135500	1715.824219	32.899677
19466.356064	16952.135500	1714.806641	131.504532
19466.356064	16952.135500	1713.789063	93.805397
19466.356064	16952.135500	1712.770508	157.024048
19466.356064	16952.135500	1711.752930	1.844782
19466.356064	16952.135500	1710.734375	156.478378
19466.356064	16952.135500	1709.715820	-36.302162
19466.356064	16952.135500	1708.697266	-8.525774
19466.356064	16952.135500	1707.678711	84.864532
19466.356064	16952.135500	1706.659180	194.576614
19466.356064	16952.135500	1705.640625	318.264191
19466.356064	16952.135500	1704.621094	179.278091
19466.356064	16952.135500	1703.600586	82.481857
19466.356064	16952.135500	1702.581055	126.275635
19466.356064	16952.135500	1701.561523	118.453163
19466.356064	16952.135500	1700.541016	-55.742809
19466.356064	16952.135500	1699.520508	-176.056229
19466.356064	16952.135500	1698.500000	68.921555
19466.356064	16952.135500	1697.478516	147.524979
19466.356064	16952.135500	1696.458008	289.248566
19466.356064	16952.135500	1695.436523	194.495132
19466.356064	16952.135500	1694.415039	270.536621
19466.356064	16952.135500	1693.393555	164.023880
19466.356064	16952.135500	1692.372070	66.857841
19466.356064	16952.135500	1691.349609	-49.029636
19466.356064	16952.135500	1690.327148	-115.823410
19466.356064	16952.135500	1689.304688	-19.007334
19466.356064	16952.135500	1688.282227	19.294128
19466.356064	16952.135500	1687.259766	43.513153
19466.356064	16952.135500	1686.236328	-81.846291
19466.356064	16952.135500	1685.213867	131.488754
19466.356064	16952.135500	1684.190430	-59.321980
19466.356064	16952.135500	1683.166016	261.235596
19466.356064	16952.135500	1682.142578	28.362480
19466.356064	16952.135500	1681.119141	-204.464767
19466.356064	16952.135500	1680.094727	-5.541181
19466.356064	16952.135500	1679.070313	-42.383106
19466.356064	16952.135500	1678.045898	84.035461
19466.356064	16952.135500	1677.020508	-1.873591
19466.356064	16952.135500	1675.996094	-78.459557
19466.356064	16952.135500	1674.970703	3.469827
19466.356064	16952.135500	1673.945313	320.744171
19466.356064	16952.135500	1672.919922	-19.321426
19466.356064	16952.135500	1671.893555	102.036331
19466.356064	16952.135500	1670.868164	8.995899
19466.356064	16952.135500	1669.841797	230.374222
19466.356064	16952.135500	1668.815430	81.381966
19466.356064	16952.135500	1667.789063	51.144825
19466.356064	16952.135500	1666.761719	-69.900215
19466.356064	16952.135500	1665.735352	-69.912224
19466.356064	16952.135500	1664.708008	130.144196
19466.356064	16952.135500	1663.680664	88.147881
19466.356064	16952.135500	1662.653320	160.103455
19466.356064	16952.135500	1661.625000	90.143105
19466.356064	16952.135500	1660.597656	-116.995438
19466.356064	16952.135500	1659.569336	117.578438
19466.356064	16952.135500	1658.541016	382.247650
19466.356064	16952.135500	1657.512695	360.971924
19466.356064	16952.135500	1656.483398	467.449768
19466.356064	16952.135500	1655.455078	269.577393
19466.356064	16952.135500	1654.425781	169.288132
19466.356064	16952.135500	1653.396484	122.414307
19466.356064	16952.135500	1652.366211	135.886749
19466.356064	16952.135500	1651.336914	520.687805
19466.356064	16952.135500	1650.306641	281.090576
19466.356064	16952.135500	1649.276367	210.927414
19466.356064	16952.135500	1648.246094	470.156128
19466.356064	16952.135500	1647.215820	341.957184
19466.356064	16952.135500	1646.185547	612.610718
19466.356064	16952.135500	1645.154297	509.891144
19466.356064	16952.135500	1644.123047	402.554871
19466.356064	16952.135500	1643.091797	473.678833
19466.356064	16952.135500	1642.060547	588.781433
19466.356064	16952.135500	1641.028320	608.840271
19466.356064	16952.135500	1639.997070	770.156433
19466.356064	16952.135500	1638.964844	584.051514
19466.356064	16952.135500	1637.931641	752.217712
19466.356064	16952.135500	1636.899414	834.663208
19466.356064	16952.135500	1635.867188	708.781677
19466.356064	16952.135500	1634.833984	488.068176
19466.356064	16952.135500	1633.800781	704.648376
19466.356064	16952.135500	1632.767578	655.152039
19466.356064	16952.135500	1631.734375	936.343628
19466.356064	16952.135500	1630.700195	780.446777
19466.356064	16952.135500	1629.666016	784.096924
19466.356064	16952.135500	1628.631836	619.027344
19466.356064	16952.135500	1627.597656	980.844360
19466.356064	16952.135500	1626.563477	933.607422
19466.356064	16952.135500	1625.528320	817.087036
19466.356064	16952.135500	1624.493164	1003.127563
19466.356064	16952.135500	1623.458008	928.190918
19466.356064	16952.135500	1622.422852	952.543457
19466.356064	16952.135500	1621.387695	891.488892
19466.356064	16952.135500	1620.351563	858.143311
19466.356064	16952.135500	1619.315430	1069.357178
19466.356064	16952.135500	1618.279297	909.127258
19466.356064	16952.135500	1617.243164	827.370605
19466.356064	16952.135500	1616.207031	909.351685
19466.356064	16952.135500	1615.169922	1021.270691
19466.356064	16952.135500	1614.132813	893.448669
19466.356064	16952.135500	1613.095703	871.681396
19466.356064	16952.135500	1612.058594	1091.840820
19466.356064	16952.135500	1611.020508	1106.908447
19466.356064	16952.135500	1609.983398	1085.132813
19466.356064	16952.135500	1608.945313	902.190979
19466.356064	16952.135500	1607.907227	919.612854
19466.356064	16952.135500	1606.868164	1029.102661
19466.356064	16952.135500	1605.830078	827.897217
19466.356064	16952.135500	1604.791016	1006.407898
19466.356064	16952.135500	1603.751953	895.020142
19466.356064	16952.135500	1602.712891	1149.369629
19466.356064	16952.135500	1601.673828	1208.183594
19466.356064	16952.135500	1600.633789	1135.943970
19466.356064	16952.135500	1599.594727	985.599915
19466.356064	16952.135500	1598.554688	1154.764404
19466.356064	16952.135500	1597.513672	864.348389
19466.356064	16952.135500	1596.473633	1463.080688
19466.356064	16952.135500	1595.433594	1064.812012
19466.356064	16952.135500	1594.392578	965.235046
19466.356064	16952.135500	1593.351563	1090.711548
19466.356064	16952.135500	1592.310547	1246.000244
