#X		#Y		#Wave		#Intensity
19420.805053	16913.451833	2000.043945	-210.525818
19420.805053	16913.451833	1999.080078	-144.289429
19420.805053	16913.451833	1998.116211	243.474426
19420.805053	16913.451833	1997.151367	-85.653152
19420.805053	16913.451833	1996.186523	149.698120
19420.805053	16913.451833	1995.222656	37.599670
19420.805053	16913.451833	1994.256836	204.915863
19420.805053	16913.451833	1993.291992	121.543488
19420.805053	16913.451833	1992.327148	463.558990
19420.805053	16913.451833	1991.361328	413.864624
19420.805053	16913.451833	1990.395508	4.861372
19420.805053	16913.451833	1989.429688	28.595392
19420.805053	16913.451833	1988.463867	-178.196030
19420.805053	16913.451833	1987.497070	52.497726
19420.805053	16913.451833	1986.531250	282.693756
19420.805053	16913.451833	1985.564453	166.247635
19420.805053	16913.451833	1984.597656	-123.587151
19420.805053	16913.451833	1983.630859	-243.131393
19420.805053	16913.451833	1982.664063	148.567245
19420.805053	16913.451833	1981.696289	-174.279449
19420.805053	16913.451833	1980.728516	-3.265181
19420.805053	16913.451833	1979.761719	330.376770
19420.805053	16913.451833	1978.792969	-217.988434
19420.805053	16913.451833	1977.825195	38.434196
19420.805053	16913.451833	1976.857422	151.307587
19420.805053	16913.451833	1975.888672	145.402664
19420.805053	16913.451833	1974.919922	260.149536
19420.805053	16913.451833	1973.951172	-57.148224
19420.805053	16913.451833	1972.982422	264.304871
19420.805053	16913.451833	1972.013672	-68.145180
19420.805053	16913.451833	1971.043945	8.627612
19420.805053	16913.451833	1970.075195	95.017647
19420.805053	16913.451833	1969.105469	348.785858
19420.805053	16913.451833	1968.135742	185.784286
19420.805053	16913.451833	1967.165039	293.691925
19420.805053	16913.451833	1966.195313	248.644119
19420.805053	16913.451833	1965.224609	208.374008
19420.805053	16913.451833	1964.253906	-29.045721
19420.805053	16913.451833	1963.283203	403.162598
19420.805053	16913.451833	1962.312500	153.190430
19420.805053	16913.451833	1961.341797	-18.067772
19420.805053	16913.451833	1960.370117	103.437469
19420.805053	16913.451833	1959.399414	155.887146
19420.805053	16913.451833	1958.427734	395.147644
19420.805053	16913.451833	1957.455078	208.745071
19420.805053	16913.451833	1956.483398	177.217987
19420.805053	16913.451833	1955.511719	475.040466
19420.805053	16913.451833	1954.539063	153.250504
19420.805053	16913.451833	1953.566406	136.232635
19420.805053	16913.451833	1952.593750	219.883530
19420.805053	16913.451833	1951.621094	163.406281
19420.805053	16913.451833	1950.647461	-87.152336
19420.805053	16913.451833	1949.674805	15.943384
19420.805053	16913.451833	1948.701172	528.972351
19420.805053	16913.451833	1947.727539	15.660398
19420.805053	16913.451833	1946.753906	66.990997
19420.805053	16913.451833	1945.780273	-53.509495
19420.805053	16913.451833	1944.805664	304.419342
19420.805053	16913.451833	1943.831055	-5.024529
19420.805053	16913.451833	1942.856445	105.001221
19420.805053	16913.451833	1941.881836	-118.514778
19420.805053	16913.451833	1940.907227	187.580002
19420.805053	16913.451833	1939.932617	192.055161
19420.805053	16913.451833	1938.957031	375.420135
19420.805053	16913.451833	1937.981445	289.184692
19420.805053	16913.451833	1937.005859	-159.585083
19420.805053	16913.451833	1936.030273	6.588833
19420.805053	16913.451833	1935.054688	-280.333252
19420.805053	16913.451833	1934.078125	179.620361
19420.805053	16913.451833	1933.101563	323.628723
19420.805053	16913.451833	1932.125000	220.399857
19420.805053	16913.451833	1931.148438	-122.582985
19420.805053	16913.451833	1930.171875	-103.326889
19420.805053	16913.451833	1929.194336	-3.333345
19420.805053	16913.451833	1928.217773	255.613281
19420.805053	16913.451833	1927.240234	0.997509
19420.805053	16913.451833	1926.262695	-38.358002
19420.805053	16913.451833	1925.284180	403.857452
19420.805053	16913.451833	1924.306641	-33.840401
19420.805053	16913.451833	1923.328125	185.927322
19420.805053	16913.451833	1922.350586	-26.745850
19420.805053	16913.451833	1921.372070	163.704422
19420.805053	16913.451833	1920.392578	85.502518
19420.805053	16913.451833	1919.414063	214.901611
19420.805053	16913.451833	1918.434570	158.772629
19420.805053	16913.451833	1917.456055	383.384033
19420.805053	16913.451833	1916.476563	124.798119
19420.805053	16913.451833	1915.497070	-106.808403
19420.805053	16913.451833	1914.516602	147.136276
19420.805053	16913.451833	1913.537109	-106.240768
19420.805053	16913.451833	1912.556641	-252.185730
19420.805053	16913.451833	1911.576172	145.629868
19420.805053	16913.451833	1910.595703	-85.515900
19420.805053	16913.451833	1909.615234	234.238968
19420.805053	16913.451833	1908.633789	100.727821
19420.805053	16913.451833	1907.653320	-320.138184
19420.805053	16913.451833	1906.671875	-32.023045
19420.805053	16913.451833	1905.690430	-177.425217
19420.805053	16913.451833	1904.708984	3.536464
19420.805053	16913.451833	1903.727539	-78.417084
19420.805053	16913.451833	1902.745117	-223.563904
19420.805053	16913.451833	1901.762695	-322.367767
19420.805053	16913.451833	1900.780273	9.546381
19420.805053	16913.451833	1899.797852	171.117935
19420.805053	16913.451833	1898.815430	308.364410
19420.805053	16913.451833	1897.832031	49.273346
19420.805053	16913.451833	1896.849609	-17.611256
19420.805053	16913.451833	1895.866211	3.086185
19420.805053	16913.451833	1894.882813	-102.538353
19420.805053	16913.451833	1893.898438	129.664810
19420.805053	16913.451833	1892.915039	109.188210
19420.805053	16913.451833	1891.930664	256.362762
19420.805053	16913.451833	1890.947266	-286.123993
19420.805053	16913.451833	1889.962891	-265.077728
19420.805053	16913.451833	1888.977539	78.866333
19420.805053	16913.451833	1887.993164	170.321075
19420.805053	16913.451833	1887.007813	-87.630348
19420.805053	16913.451833	1886.023438	-90.695648
19420.805053	16913.451833	1885.038086	175.536575
19420.805053	16913.451833	1884.051758	114.317612
19420.805053	16913.451833	1883.066406	298.066284
19420.805053	16913.451833	1882.081055	355.729126
19420.805053	16913.451833	1881.094727	28.028101
19420.805053	16913.451833	1880.108398	-47.473438
19420.805053	16913.451833	1879.122070	-81.712029
19420.805053	16913.451833	1878.135742	43.985153
19420.805053	16913.451833	1877.148438	60.689777
19420.805053	16913.451833	1876.162109	28.993668
19420.805053	16913.451833	1875.174805	7.037291
19420.805053	16913.451833	1874.187500	-266.620392
19420.805053	16913.451833	1873.199219	28.609951
19420.805053	16913.451833	1872.211914	-227.938126
19420.805053	16913.451833	1871.223633	-133.555588
19420.805053	16913.451833	1870.236328	-27.082842
19420.805053	16913.451833	1869.248047	-118.922112
19420.805053	16913.451833	1868.258789	-140.572601
19420.805053	16913.451833	1867.270508	-183.945313
19420.805053	16913.451833	1866.282227	-33.911907
19420.805053	16913.451833	1865.292969	210.341614
19420.805053	16913.451833	1864.303711	-96.345085
19420.805053	16913.451833	1863.314453	-59.867897
19420.805053	16913.451833	1862.324219	-103.078819
19420.805053	16913.451833	1861.334961	49.341202
19420.805053	16913.451833	1860.344727	27.896549
19420.805053	16913.451833	1859.354492	146.481369
19420.805053	16913.451833	1858.364258	-128.341293
19420.805053	16913.451833	1857.374023	110.911507
19420.805053	16913.451833	1856.383789	29.226610
19420.805053	16913.451833	1855.392578	87.488380
19420.805053	16913.451833	1854.401367	251.850601
19420.805053	16913.451833	1853.410156	6.268836
19420.805053	16913.451833	1852.418945	-236.799408
19420.805053	16913.451833	1851.426758	318.016602
19420.805053	16913.451833	1850.435547	21.980764
19420.805053	16913.451833	1849.443359	-6.503861
19420.805053	16913.451833	1848.451172	99.921478
19420.805053	16913.451833	1847.458984	-188.668549
19420.805053	16913.451833	1846.466797	377.673798
19420.805053	16913.451833	1845.473633	329.891479
19420.805053	16913.451833	1844.480469	-112.631363
19420.805053	16913.451833	1843.487305	-52.013443
19420.805053	16913.451833	1842.494141	102.415634
19420.805053	16913.451833	1841.500977	105.220779
19420.805053	16913.451833	1840.506836	423.106659
19420.805053	16913.451833	1839.513672	113.210251
19420.805053	16913.451833	1838.519531	-95.598648
19420.805053	16913.451833	1837.525391	-15.873383
19420.805053	16913.451833	1836.530273	1.319191
19420.805053	16913.451833	1835.536133	364.516571
19420.805053	16913.451833	1834.541016	629.059143
19420.805053	16913.451833	1833.545898	372.231506
19420.805053	16913.451833	1832.550781	-117.475571
19420.805053	16913.451833	1831.555664	247.793884
19420.805053	16913.451833	1830.560547	209.583359
19420.805053	16913.451833	1829.564453	-169.472961
19420.805053	16913.451833	1828.568359	51.540565
19420.805053	16913.451833	1827.572266	428.401794
19420.805053	16913.451833	1826.576172	169.380844
19420.805053	16913.451833	1825.580078	462.070038
19420.805053	16913.451833	1824.583008	109.558578
19420.805053	16913.451833	1823.585938	-58.241650
19420.805053	16913.451833	1822.588867	18.490259
19420.805053	16913.451833	1821.591797	28.049828
19420.805053	16913.451833	1820.594727	183.736496
19420.805053	16913.451833	1819.596680	147.668640
19420.805053	16913.451833	1818.599609	202.593781
19420.805053	16913.451833	1817.601563	-147.269547
19420.805053	16913.451833	1816.603516	84.791649
19420.805053	16913.451833	1815.604492	194.631958
19420.805053	16913.451833	1814.606445	364.221954
19420.805053	16913.451833	1813.607422	220.215424
19420.805053	16913.451833	1812.608398	152.778702
19420.805053	16913.451833	1811.609375	161.863708
19420.805053	16913.451833	1810.610352	94.363777
19420.805053	16913.451833	1809.610352	206.180176
19420.805053	16913.451833	1808.611328	184.014572
19420.805053	16913.451833	1807.611328	1.657032
19420.805053	16913.451833	1806.611328	115.653168
19420.805053	16913.451833	1805.610352	126.808388
19420.805053	16913.451833	1804.610352	312.295593
19420.805053	16913.451833	1803.609375	442.716949
19420.805053	16913.451833	1802.608398	291.239441
19420.805053	16913.451833	1801.607422	309.278076
19420.805053	16913.451833	1800.606445	78.984116
19420.805053	16913.451833	1799.605469	326.053864
19420.805053	16913.451833	1798.603516	45.606873
19420.805053	16913.451833	1797.601563	113.527351
19420.805053	16913.451833	1796.599609	4.839724
19420.805053	16913.451833	1795.597656	323.021576
19420.805053	16913.451833	1794.595703	300.040741
19420.805053	16913.451833	1793.592773	181.639618
19420.805053	16913.451833	1792.589844	187.157898
19420.805053	16913.451833	1791.587891	204.517548
19420.805053	16913.451833	1790.583984	24.042959
19420.805053	16913.451833	1789.581055	246.152237
19420.805053	16913.451833	1788.577148	98.934242
19420.805053	16913.451833	1787.574219	132.675644
19420.805053	16913.451833	1786.570313	6.812697
19420.805053	16913.451833	1785.566406	178.468903
19420.805053	16913.451833	1784.561523	126.272942
19420.805053	16913.451833	1783.557617	226.303162
19420.805053	16913.451833	1782.552734	238.194534
19420.805053	16913.451833	1781.547852	278.545563
19420.805053	16913.451833	1780.542969	-90.238167
19420.805053	16913.451833	1779.538086	-78.532227
19420.805053	16913.451833	1778.532227	263.522186
19420.805053	16913.451833	1777.527344	179.922409
19420.805053	16913.451833	1776.521484	333.904236
19420.805053	16913.451833	1775.515625	402.213165
19420.805053	16913.451833	1774.508789	168.735184
19420.805053	16913.451833	1773.502930	118.134338
19420.805053	16913.451833	1772.496094	-136.742813
19420.805053	16913.451833	1771.489258	71.337936
19420.805053	16913.451833	1770.482422	174.813705
19420.805053	16913.451833	1769.475586	19.490728
19420.805053	16913.451833	1768.467773	146.490906
19420.805053	16913.451833	1767.460938	301.827087
19420.805053	16913.451833	1766.453125	226.946518
19420.805053	16913.451833	1765.445313	301.406342
19420.805053	16913.451833	1764.437500	212.155457
19420.805053	16913.451833	1763.428711	-14.639600
19420.805053	16913.451833	1762.420898	322.630676
19420.805053	16913.451833	1761.412109	190.506516
19420.805053	16913.451833	1760.403320	6.225298
19420.805053	16913.451833	1759.393555	23.257952
19420.805053	16913.451833	1758.384766	-156.363388
19420.805053	16913.451833	1757.375000	139.910721
19420.805053	16913.451833	1756.366211	232.396011
19420.805053	16913.451833	1755.356445	241.913101
19420.805053	16913.451833	1754.345703	182.709732
19420.805053	16913.451833	1753.335938	50.096336
19420.805053	16913.451833	1752.325195	125.605995
19420.805053	16913.451833	1751.315430	269.584686
19420.805053	16913.451833	1750.304688	-85.516869
19420.805053	16913.451833	1749.292969	-239.622665
19420.805053	16913.451833	1748.282227	126.258347
19420.805053	16913.451833	1747.270508	158.687805
19420.805053	16913.451833	1746.259766	105.956009
19420.805053	16913.451833	1745.248047	324.821533
19420.805053	16913.451833	1744.235352	54.596821
19420.805053	16913.451833	1743.223633	218.896896
19420.805053	16913.451833	1742.211914	-11.245600
19420.805053	16913.451833	1741.199219	32.432106
19420.805053	16913.451833	1740.186523	-112.805145
19420.805053	16913.451833	1739.173828	-102.339920
19420.805053	16913.451833	1738.160156	-11.757293
19420.805053	16913.451833	1737.147461	48.039406
19420.805053	16913.451833	1736.133789	482.692230
19420.805053	16913.451833	1735.120117	-66.135040
19420.805053	16913.451833	1734.106445	108.882172
19420.805053	16913.451833	1733.091797	-46.232147
19420.805053	16913.451833	1732.078125	-208.440948
19420.805053	16913.451833	1731.063477	-50.255264
19420.805053	16913.451833	1730.048828	-33.553749
19420.805053	16913.451833	1729.034180	232.699188
19420.805053	16913.451833	1728.019531	-122.874886
19420.805053	16913.451833	1727.003906	-108.785553
19420.805053	16913.451833	1725.988281	-35.944294
19420.805053	16913.451833	1724.972656	-182.075195
19420.805053	16913.451833	1723.957031	-43.535130
19420.805053	16913.451833	1722.941406	-274.466125
19420.805053	16913.451833	1721.924805	-74.981598
19420.805053	16913.451833	1720.909180	-59.071831
19420.805053	16913.451833	1719.892578	-363.003296
19420.805053	16913.451833	1718.875977	-434.188721
19420.805053	16913.451833	1717.858398	11.611768
19420.805053	16913.451833	1716.841797	-184.314133
19420.805053	16913.451833	1715.824219	-189.959946
19420.805053	16913.451833	1714.806641	182.484573
19420.805053	16913.451833	1713.789063	141.387344
19420.805053	16913.451833	1712.770508	203.532883
19420.805053	16913.451833	1711.752930	-81.846916
19420.805053	16913.451833	1710.734375	-8.099768
19420.805053	16913.451833	1709.715820	-406.125885
19420.805053	16913.451833	1708.697266	-4.035826
19420.805053	16913.451833	1707.678711	95.227875
19420.805053	16913.451833	1706.659180	-220.732208
19420.805053	16913.451833	1705.640625	-77.058289
19420.805053	16913.451833	1704.621094	96.957855
19420.805053	16913.451833	1703.600586	-308.112793
19420.805053	16913.451833	1702.581055	97.740326
19420.805053	16913.451833	1701.561523	39.455692
19420.805053	16913.451833	1700.541016	56.078941
19420.805053	16913.451833	1699.520508	203.786835
19420.805053	16913.451833	1698.500000	133.595932
19420.805053	16913.451833	1697.478516	-74.772469
19420.805053	16913.451833	1696.458008	16.499655
19420.805053	16913.451833	1695.436523	121.705475
19420.805053	16913.451833	1694.415039	25.580704
19420.805053	16913.451833	1693.393555	-234.328720
19420.805053	16913.451833	1692.372070	92.878586
19420.805053	16913.451833	1691.349609	113.548676
19420.805053	16913.451833	1690.327148	113.108948
19420.805053	16913.451833	1689.304688	243.515518
19420.805053	16913.451833	1688.282227	455.617126
19420.805053	16913.451833	1687.259766	270.338654
19420.805053	16913.451833	1686.236328	304.678284
19420.805053	16913.451833	1685.213867	362.314758
19420.805053	16913.451833	1684.190430	-72.891472
19420.805053	16913.451833	1683.166016	262.529358
19420.805053	16913.451833	1682.142578	450.707428
19420.805053	16913.451833	1681.119141	379.687775
19420.805053	16913.451833	1680.094727	457.985931
19420.805053	16913.451833	1679.070313	260.899109
19420.805053	16913.451833	1678.045898	133.823013
19420.805053	16913.451833	1677.020508	197.982101
19420.805053	16913.451833	1675.996094	413.645782
19420.805053	16913.451833	1674.970703	-4.941351
19420.805053	16913.451833	1673.945313	406.375580
19420.805053	16913.451833	1672.919922	393.359497
19420.805053	16913.451833	1671.893555	401.271851
19420.805053	16913.451833	1670.868164	371.876587
19420.805053	16913.451833	1669.841797	242.296906
19420.805053	16913.451833	1668.815430	312.994507
19420.805053	16913.451833	1667.789063	465.113281
19420.805053	16913.451833	1666.761719	214.437897
19420.805053	16913.451833	1665.735352	257.070618
19420.805053	16913.451833	1664.708008	292.667542
19420.805053	16913.451833	1663.680664	-27.713676
19420.805053	16913.451833	1662.653320	240.457504
19420.805053	16913.451833	1661.625000	610.809509
19420.805053	16913.451833	1660.597656	492.747559
19420.805053	16913.451833	1659.569336	118.993973
19420.805053	16913.451833	1658.541016	442.598724
19420.805053	16913.451833	1657.512695	236.258392
19420.805053	16913.451833	1656.483398	160.070145
19420.805053	16913.451833	1655.455078	397.472534
19420.805053	16913.451833	1654.425781	323.566711
19420.805053	16913.451833	1653.396484	337.902679
19420.805053	16913.451833	1652.366211	647.030701
19420.805053	16913.451833	1651.336914	809.811340
19420.805053	16913.451833	1650.306641	777.582031
19420.805053	16913.451833	1649.276367	511.027527
19420.805053	16913.451833	1648.246094	604.106323
19420.805053	16913.451833	1647.215820	673.948547
19420.805053	16913.451833	1646.185547	780.856445
19420.805053	16913.451833	1645.154297	896.981750
19420.805053	16913.451833	1644.123047	853.126526
19420.805053	16913.451833	1643.091797	772.204285
19420.805053	16913.451833	1642.060547	828.011292
19420.805053	16913.451833	1641.028320	881.472717
19420.805053	16913.451833	1639.997070	895.546936
19420.805053	16913.451833	1638.964844	1224.530273
19420.805053	16913.451833	1637.931641	708.353882
19420.805053	16913.451833	1636.899414	826.616577
19420.805053	16913.451833	1635.867188	1067.493652
19420.805053	16913.451833	1634.833984	982.031372
19420.805053	16913.451833	1633.800781	829.524109
19420.805053	16913.451833	1632.767578	906.063110
19420.805053	16913.451833	1631.734375	945.583252
19420.805053	16913.451833	1630.700195	1181.611450
19420.805053	16913.451833	1629.666016	1003.797302
19420.805053	16913.451833	1628.631836	1288.284912
19420.805053	16913.451833	1627.597656	1184.491577
19420.805053	16913.451833	1626.563477	1020.690125
19420.805053	16913.451833	1625.528320	1037.124390
19420.805053	16913.451833	1624.493164	1095.141113
19420.805053	16913.451833	1623.458008	1215.495728
19420.805053	16913.451833	1622.422852	1178.857422
19420.805053	16913.451833	1621.387695	1303.813477
19420.805053	16913.451833	1620.351563	1103.381348
19420.805053	16913.451833	1619.315430	1209.894043
19420.805053	16913.451833	1618.279297	843.538391
19420.805053	16913.451833	1617.243164	793.300171
19420.805053	16913.451833	1616.207031	1001.352539
19420.805053	16913.451833	1615.169922	923.496277
19420.805053	16913.451833	1614.132813	836.486084
19420.805053	16913.451833	1613.095703	1383.247070
19420.805053	16913.451833	1612.058594	1109.636108
19420.805053	16913.451833	1611.020508	1177.079102
19420.805053	16913.451833	1609.983398	977.390259
19420.805053	16913.451833	1608.945313	1148.527466
19420.805053	16913.451833	1607.907227	1096.333252
19420.805053	16913.451833	1606.868164	1150.075439
19420.805053	16913.451833	1605.830078	1045.061890
19420.805053	16913.451833	1604.791016	1347.368286
19420.805053	16913.451833	1603.751953	1037.715576
19420.805053	16913.451833	1602.712891	1121.513306
19420.805053	16913.451833	1601.673828	1465.163086
19420.805053	16913.451833	1600.633789	997.184998
19420.805053	16913.451833	1599.594727	929.392395
19420.805053	16913.451833	1598.554688	1158.126831
19420.805053	16913.451833	1597.513672	1062.854614
19420.805053	16913.451833	1596.473633	903.361389
19420.805053	16913.451833	1595.433594	1412.341064
19420.805053	16913.451833	1594.392578	1246.064209
19420.805053	16913.451833	1593.351563	1169.450195
