#X		#Y		#Wave		#Intensity
19421.769096	16906.596500	2000.043945	148.823059
19421.769096	16906.596500	1999.080078	-219.635773
19421.769096	16906.596500	1998.116211	-99.538269
19421.769096	16906.596500	1997.151367	-135.947464
19421.769096	16906.596500	1996.186523	-105.785385
19421.769096	16906.596500	1995.222656	-18.992403
19421.769096	16906.596500	1994.256836	245.796158
19421.769096	16906.596500	1993.291992	334.351166
19421.769096	16906.596500	1992.327148	75.953629
19421.769096	16906.596500	1991.361328	-66.282921
19421.769096	16906.596500	1990.395508	90.720360
19421.769096	16906.596500	1989.429688	89.029419
19421.769096	16906.596500	1988.463867	275.102600
19421.769096	16906.596500	1987.497070	260.502838
19421.769096	16906.596500	1986.531250	-239.072525
19421.769096	16906.596500	1985.564453	317.129608
19421.769096	16906.596500	1984.597656	225.184753
19421.769096	16906.596500	1983.630859	19.353060
19421.769096	16906.596500	1982.664063	65.459023
19421.769096	16906.596500	1981.696289	264.537811
19421.769096	16906.596500	1980.728516	55.739376
19421.769096	16906.596500	1979.761719	177.788559
19421.769096	16906.596500	1978.792969	487.298828
19421.769096	16906.596500	1977.825195	253.341309
19421.769096	16906.596500	1976.857422	229.125717
19421.769096	16906.596500	1975.888672	412.079742
19421.769096	16906.596500	1974.919922	93.888733
19421.769096	16906.596500	1973.951172	-4.755168
19421.769096	16906.596500	1972.982422	320.765869
19421.769096	16906.596500	1972.013672	251.434708
19421.769096	16906.596500	1971.043945	34.058464
19421.769096	16906.596500	1970.075195	-104.472450
19421.769096	16906.596500	1969.105469	131.590179
19421.769096	16906.596500	1968.135742	167.839874
19421.769096	16906.596500	1967.165039	-17.782499
19421.769096	16906.596500	1966.195313	373.014221
19421.769096	16906.596500	1965.224609	298.064728
19421.769096	16906.596500	1964.253906	26.046440
19421.769096	16906.596500	1963.283203	273.548431
19421.769096	16906.596500	1962.312500	274.712402
19421.769096	16906.596500	1961.341797	290.570496
19421.769096	16906.596500	1960.370117	-23.385216
19421.769096	16906.596500	1959.399414	169.523483
19421.769096	16906.596500	1958.427734	197.494492
19421.769096	16906.596500	1957.455078	-99.235626
19421.769096	16906.596500	1956.483398	233.567993
19421.769096	16906.596500	1955.511719	374.439667
19421.769096	16906.596500	1954.539063	104.731781
19421.769096	16906.596500	1953.566406	-66.617073
19421.769096	16906.596500	1952.593750	221.533585
19421.769096	16906.596500	1951.621094	369.517517
19421.769096	16906.596500	1950.647461	198.116150
19421.769096	16906.596500	1949.674805	147.077850
19421.769096	16906.596500	1948.701172	-105.292122
19421.769096	16906.596500	1947.727539	3.264730
19421.769096	16906.596500	1946.753906	141.216385
19421.769096	16906.596500	1945.780273	72.976013
19421.769096	16906.596500	1944.805664	230.465012
19421.769096	16906.596500	1943.831055	235.804825
19421.769096	16906.596500	1942.856445	147.939621
19421.769096	16906.596500	1941.881836	-62.497101
19421.769096	16906.596500	1940.907227	148.817505
19421.769096	16906.596500	1939.932617	215.436691
19421.769096	16906.596500	1938.957031	22.265631
19421.769096	16906.596500	1937.981445	-1.760265
19421.769096	16906.596500	1937.005859	177.560410
19421.769096	16906.596500	1936.030273	50.661415
19421.769096	16906.596500	1935.054688	-303.922028
19421.769096	16906.596500	1934.078125	-68.292946
19421.769096	16906.596500	1933.101563	189.298096
19421.769096	16906.596500	1932.125000	101.714203
19421.769096	16906.596500	1931.148438	-39.650364
19421.769096	16906.596500	1930.171875	-122.223663
19421.769096	16906.596500	1929.194336	267.359772
19421.769096	16906.596500	1928.217773	133.447815
19421.769096	16906.596500	1927.240234	-19.947075
19421.769096	16906.596500	1926.262695	-29.015612
19421.769096	16906.596500	1925.284180	140.382874
19421.769096	16906.596500	1924.306641	114.238350
19421.769096	16906.596500	1923.328125	-126.882103
19421.769096	16906.596500	1922.350586	-218.863785
19421.769096	16906.596500	1921.372070	216.799850
19421.769096	16906.596500	1920.392578	-72.942902
19421.769096	16906.596500	1919.414063	-62.231663
19421.769096	16906.596500	1918.434570	258.533905
19421.769096	16906.596500	1917.456055	154.538101
19421.769096	16906.596500	1916.476563	28.660603
19421.769096	16906.596500	1915.497070	-45.897800
19421.769096	16906.596500	1914.516602	79.636070
19421.769096	16906.596500	1913.537109	-11.899674
19421.769096	16906.596500	1912.556641	77.083664
19421.769096	16906.596500	1911.576172	-170.361923
19421.769096	16906.596500	1910.595703	-159.302505
19421.769096	16906.596500	1909.615234	-287.116699
19421.769096	16906.596500	1908.633789	-197.984528
19421.769096	16906.596500	1907.653320	0.775083
19421.769096	16906.596500	1906.671875	226.295914
19421.769096	16906.596500	1905.690430	198.516144
19421.769096	16906.596500	1904.708984	-153.032944
19421.769096	16906.596500	1903.727539	121.201401
19421.769096	16906.596500	1902.745117	108.185593
19421.769096	16906.596500	1901.762695	270.419952
19421.769096	16906.596500	1900.780273	-39.351498
19421.769096	16906.596500	1899.797852	234.824188
19421.769096	16906.596500	1898.815430	68.745628
19421.769096	16906.596500	1897.832031	60.824558
19421.769096	16906.596500	1896.849609	-202.323792
19421.769096	16906.596500	1895.866211	161.776611
19421.769096	16906.596500	1894.882813	-50.173294
19421.769096	16906.596500	1893.898438	17.417902
19421.769096	16906.596500	1892.915039	-114.180710
19421.769096	16906.596500	1891.930664	125.921120
19421.769096	16906.596500	1890.947266	-143.990173
19421.769096	16906.596500	1889.962891	229.637863
19421.769096	16906.596500	1888.977539	-224.595612
19421.769096	16906.596500	1887.993164	115.003716
19421.769096	16906.596500	1887.007813	141.490387
19421.769096	16906.596500	1886.023438	-28.515705
19421.769096	16906.596500	1885.038086	371.606476
19421.769096	16906.596500	1884.051758	119.241074
19421.769096	16906.596500	1883.066406	58.554592
19421.769096	16906.596500	1882.081055	53.679440
19421.769096	16906.596500	1881.094727	339.703217
19421.769096	16906.596500	1880.108398	-130.441742
19421.769096	16906.596500	1879.122070	-93.992569
19421.769096	16906.596500	1878.135742	194.411209
19421.769096	16906.596500	1877.148438	39.509560
19421.769096	16906.596500	1876.162109	230.972290
19421.769096	16906.596500	1875.174805	-127.196404
19421.769096	16906.596500	1874.187500	47.337906
19421.769096	16906.596500	1873.199219	-329.968018
19421.769096	16906.596500	1872.211914	142.215546
19421.769096	16906.596500	1871.223633	-109.116867
19421.769096	16906.596500	1870.236328	84.727608
19421.769096	16906.596500	1869.248047	51.196720
19421.769096	16906.596500	1868.258789	-105.610893
19421.769096	16906.596500	1867.270508	-388.055298
19421.769096	16906.596500	1866.282227	1.556615
19421.769096	16906.596500	1865.292969	33.390610
19421.769096	16906.596500	1864.303711	-212.623566
19421.769096	16906.596500	1863.314453	181.618469
19421.769096	16906.596500	1862.324219	-189.889404
19421.769096	16906.596500	1861.334961	187.322632
19421.769096	16906.596500	1860.344727	378.509125
19421.769096	16906.596500	1859.354492	125.484436
19421.769096	16906.596500	1858.364258	-42.967415
19421.769096	16906.596500	1857.374023	-88.287033
19421.769096	16906.596500	1856.383789	139.026367
19421.769096	16906.596500	1855.392578	115.413956
19421.769096	16906.596500	1854.401367	-98.700592
19421.769096	16906.596500	1853.410156	32.060459
19421.769096	16906.596500	1852.418945	119.381454
19421.769096	16906.596500	1851.426758	-164.499573
19421.769096	16906.596500	1850.435547	-57.896252
19421.769096	16906.596500	1849.443359	-91.069618
19421.769096	16906.596500	1848.451172	-20.652683
19421.769096	16906.596500	1847.458984	20.833817
19421.769096	16906.596500	1846.466797	283.830078
19421.769096	16906.596500	1845.473633	-79.226700
19421.769096	16906.596500	1844.480469	-102.758575
19421.769096	16906.596500	1843.487305	30.137531
19421.769096	16906.596500	1842.494141	-17.486862
19421.769096	16906.596500	1841.500977	334.240082
19421.769096	16906.596500	1840.506836	50.843388
19421.769096	16906.596500	1839.513672	29.656061
19421.769096	16906.596500	1838.519531	99.830933
19421.769096	16906.596500	1837.525391	203.617889
19421.769096	16906.596500	1836.530273	-2.690508
19421.769096	16906.596500	1835.536133	19.338463
19421.769096	16906.596500	1834.541016	-23.523338
19421.769096	16906.596500	1833.545898	490.890076
19421.769096	16906.596500	1832.550781	198.141922
19421.769096	16906.596500	1831.555664	200.824799
19421.769096	16906.596500	1830.560547	371.531250
19421.769096	16906.596500	1829.564453	278.124023
19421.769096	16906.596500	1828.568359	254.318069
19421.769096	16906.596500	1827.572266	170.508682
19421.769096	16906.596500	1826.576172	65.112656
19421.769096	16906.596500	1825.580078	67.654243
19421.769096	16906.596500	1824.583008	-90.498077
19421.769096	16906.596500	1823.585938	39.081726
19421.769096	16906.596500	1822.588867	216.521423
19421.769096	16906.596500	1821.591797	405.839417
19421.769096	16906.596500	1820.594727	226.038513
19421.769096	16906.596500	1819.596680	161.266327
19421.769096	16906.596500	1818.599609	340.794556
19421.769096	16906.596500	1817.601563	237.628525
19421.769096	16906.596500	1816.603516	201.503174
19421.769096	16906.596500	1815.604492	50.444920
19421.769096	16906.596500	1814.606445	150.710175
19421.769096	16906.596500	1813.607422	337.048157
19421.769096	16906.596500	1812.608398	109.354111
19421.769096	16906.596500	1811.609375	73.068451
19421.769096	16906.596500	1810.610352	120.457710
19421.769096	16906.596500	1809.610352	134.307861
19421.769096	16906.596500	1808.611328	-490.237335
19421.769096	16906.596500	1807.611328	-12.655776
19421.769096	16906.596500	1806.611328	208.975555
19421.769096	16906.596500	1805.610352	413.751038
19421.769096	16906.596500	1804.610352	288.713318
19421.769096	16906.596500	1803.609375	137.397827
19421.769096	16906.596500	1802.608398	-80.781944
19421.769096	16906.596500	1801.607422	312.292206
19421.769096	16906.596500	1800.606445	461.670166
19421.769096	16906.596500	1799.605469	207.579575
19421.769096	16906.596500	1798.603516	156.360626
19421.769096	16906.596500	1797.601563	171.903687
19421.769096	16906.596500	1796.599609	464.078979
19421.769096	16906.596500	1795.597656	155.086884
19421.769096	16906.596500	1794.595703	158.512497
19421.769096	16906.596500	1793.592773	-5.003432
19421.769096	16906.596500	1792.589844	167.556778
19421.769096	16906.596500	1791.587891	258.957184
19421.769096	16906.596500	1790.583984	214.451401
19421.769096	16906.596500	1789.581055	343.794037
19421.769096	16906.596500	1788.577148	139.577621
19421.769096	16906.596500	1787.574219	102.057945
19421.769096	16906.596500	1786.570313	226.383896
19421.769096	16906.596500	1785.566406	-54.074738
19421.769096	16906.596500	1784.561523	203.369232
19421.769096	16906.596500	1783.557617	265.524933
19421.769096	16906.596500	1782.552734	70.652138
19421.769096	16906.596500	1781.547852	61.308437
19421.769096	16906.596500	1780.542969	125.616287
19421.769096	16906.596500	1779.538086	4.366116
19421.769096	16906.596500	1778.532227	108.926392
19421.769096	16906.596500	1777.527344	265.659943
19421.769096	16906.596500	1776.521484	94.323822
19421.769096	16906.596500	1775.515625	58.403877
19421.769096	16906.596500	1774.508789	219.578918
19421.769096	16906.596500	1773.502930	200.118683
19421.769096	16906.596500	1772.496094	147.342163
19421.769096	16906.596500	1771.489258	111.128189
19421.769096	16906.596500	1770.482422	338.318115
19421.769096	16906.596500	1769.475586	43.245499
19421.769096	16906.596500	1768.467773	-95.194427
19421.769096	16906.596500	1767.460938	29.657763
19421.769096	16906.596500	1766.453125	225.536255
19421.769096	16906.596500	1765.445313	-81.470581
19421.769096	16906.596500	1764.437500	313.347870
19421.769096	16906.596500	1763.428711	188.804474
19421.769096	16906.596500	1762.420898	230.123993
19421.769096	16906.596500	1761.412109	363.758667
19421.769096	16906.596500	1760.403320	395.387177
19421.769096	16906.596500	1759.393555	-136.822357
19421.769096	16906.596500	1758.384766	193.115280
19421.769096	16906.596500	1757.375000	-2.799411
19421.769096	16906.596500	1756.366211	180.046082
19421.769096	16906.596500	1755.356445	-37.262093
19421.769096	16906.596500	1754.345703	292.066681
19421.769096	16906.596500	1753.335938	86.477455
19421.769096	16906.596500	1752.325195	-7.938166
19421.769096	16906.596500	1751.315430	228.702759
19421.769096	16906.596500	1750.304688	122.300095
19421.769096	16906.596500	1749.292969	-76.351563
19421.769096	16906.596500	1748.282227	-90.644104
19421.769096	16906.596500	1747.270508	162.030869
19421.769096	16906.596500	1746.259766	-166.725983
19421.769096	16906.596500	1745.248047	140.027451
19421.769096	16906.596500	1744.235352	-28.166117
19421.769096	16906.596500	1743.223633	-31.080488
19421.769096	16906.596500	1742.211914	-60.050354
19421.769096	16906.596500	1741.199219	99.747482
19421.769096	16906.596500	1740.186523	-177.221146
19421.769096	16906.596500	1739.173828	225.407104
19421.769096	16906.596500	1738.160156	125.285332
19421.769096	16906.596500	1737.147461	117.107605
19421.769096	16906.596500	1736.133789	-117.550522
19421.769096	16906.596500	1735.120117	218.392487
19421.769096	16906.596500	1734.106445	127.430954
19421.769096	16906.596500	1733.091797	24.633648
19421.769096	16906.596500	1732.078125	34.902561
19421.769096	16906.596500	1731.063477	144.033218
19421.769096	16906.596500	1730.048828	-109.726318
19421.769096	16906.596500	1729.034180	34.546066
19421.769096	16906.596500	1728.019531	-242.811478
19421.769096	16906.596500	1727.003906	-42.240314
19421.769096	16906.596500	1725.988281	-239.620911
19421.769096	16906.596500	1724.972656	-22.822117
19421.769096	16906.596500	1723.957031	-88.538895
19421.769096	16906.596500	1722.941406	-10.815831
19421.769096	16906.596500	1721.924805	149.112427
19421.769096	16906.596500	1720.909180	-3.858026
19421.769096	16906.596500	1719.892578	-225.036743
19421.769096	16906.596500	1718.875977	204.913269
19421.769096	16906.596500	1717.858398	0.061794
19421.769096	16906.596500	1716.841797	-275.282288
19421.769096	16906.596500	1715.824219	-214.657593
19421.769096	16906.596500	1714.806641	-215.205276
19421.769096	16906.596500	1713.789063	-194.700272
19421.769096	16906.596500	1712.770508	-460.735168
19421.769096	16906.596500	1711.752930	-146.914337
19421.769096	16906.596500	1710.734375	42.310810
19421.769096	16906.596500	1709.715820	-73.673080
19421.769096	16906.596500	1708.697266	40.230240
19421.769096	16906.596500	1707.678711	-96.976707
19421.769096	16906.596500	1706.659180	-168.547058
19421.769096	16906.596500	1705.640625	-43.199421
19421.769096	16906.596500	1704.621094	-293.075439
19421.769096	16906.596500	1703.600586	50.071369
19421.769096	16906.596500	1702.581055	-45.209545
19421.769096	16906.596500	1701.561523	-138.187012
19421.769096	16906.596500	1700.541016	159.998764
19421.769096	16906.596500	1699.520508	-399.210022
19421.769096	16906.596500	1698.500000	46.288860
19421.769096	16906.596500	1697.478516	-39.912498
19421.769096	16906.596500	1696.458008	124.314339
19421.769096	16906.596500	1695.436523	-93.067909
19421.769096	16906.596500	1694.415039	185.611832
19421.769096	16906.596500	1693.393555	293.338715
19421.769096	16906.596500	1692.372070	218.515793
19421.769096	16906.596500	1691.349609	82.850121
19421.769096	16906.596500	1690.327148	82.774796
19421.769096	16906.596500	1689.304688	103.671471
19421.769096	16906.596500	1688.282227	77.751892
19421.769096	16906.596500	1687.259766	248.059860
19421.769096	16906.596500	1686.236328	380.852936
19421.769096	16906.596500	1685.213867	97.762962
19421.769096	16906.596500	1684.190430	272.444824
19421.769096	16906.596500	1683.166016	129.444168
19421.769096	16906.596500	1682.142578	147.520172
19421.769096	16906.596500	1681.119141	95.510414
19421.769096	16906.596500	1680.094727	335.148743
19421.769096	16906.596500	1679.070313	261.999878
19421.769096	16906.596500	1678.045898	247.138977
19421.769096	16906.596500	1677.020508	159.922806
19421.769096	16906.596500	1675.996094	163.628845
19421.769096	16906.596500	1674.970703	181.260696
19421.769096	16906.596500	1673.945313	296.727142
19421.769096	16906.596500	1672.919922	381.800659
19421.769096	16906.596500	1671.893555	660.171753
19421.769096	16906.596500	1670.868164	493.452515
19421.769096	16906.596500	1669.841797	231.249573
19421.769096	16906.596500	1668.815430	111.143883
19421.769096	16906.596500	1667.789063	684.829834
19421.769096	16906.596500	1666.761719	78.089577
19421.769096	16906.596500	1665.735352	353.576630
19421.769096	16906.596500	1664.708008	279.881683
19421.769096	16906.596500	1663.680664	636.550781
19421.769096	16906.596500	1662.653320	251.071304
19421.769096	16906.596500	1661.625000	419.153015
19421.769096	16906.596500	1660.597656	749.887329
19421.769096	16906.596500	1659.569336	480.706390
19421.769096	16906.596500	1658.541016	583.451416
19421.769096	16906.596500	1657.512695	769.769958
19421.769096	16906.596500	1656.483398	516.883362
19421.769096	16906.596500	1655.455078	510.279938
19421.769096	16906.596500	1654.425781	296.950104
19421.769096	16906.596500	1653.396484	424.985291
19421.769096	16906.596500	1652.366211	357.932892
19421.769096	16906.596500	1651.336914	571.718994
19421.769096	16906.596500	1650.306641	664.716553
19421.769096	16906.596500	1649.276367	525.642212
19421.769096	16906.596500	1648.246094	968.821289
19421.769096	16906.596500	1647.215820	838.963928
19421.769096	16906.596500	1646.185547	704.491150
19421.769096	16906.596500	1645.154297	590.905457
19421.769096	16906.596500	1644.123047	876.007446
19421.769096	16906.596500	1643.091797	845.811951
19421.769096	16906.596500	1642.060547	722.927612
19421.769096	16906.596500	1641.028320	875.727844
19421.769096	16906.596500	1639.997070	789.904846
19421.769096	16906.596500	1638.964844	676.301941
19421.769096	16906.596500	1637.931641	1025.748413
19421.769096	16906.596500	1636.899414	983.868225
19421.769096	16906.596500	1635.867188	803.134399
19421.769096	16906.596500	1634.833984	1189.330444
19421.769096	16906.596500	1633.800781	1001.655701
19421.769096	16906.596500	1632.767578	707.650452
19421.769096	16906.596500	1631.734375	762.927185
19421.769096	16906.596500	1630.700195	1139.537109
19421.769096	16906.596500	1629.666016	901.120850
19421.769096	16906.596500	1628.631836	1134.255859
19421.769096	16906.596500	1627.597656	1113.123047
19421.769096	16906.596500	1626.563477	1078.133789
19421.769096	16906.596500	1625.528320	1006.194763
19421.769096	16906.596500	1624.493164	1024.343018
19421.769096	16906.596500	1623.458008	996.308533
19421.769096	16906.596500	1622.422852	942.895081
19421.769096	16906.596500	1621.387695	1023.363708
19421.769096	16906.596500	1620.351563	1147.642578
19421.769096	16906.596500	1619.315430	1036.557983
19421.769096	16906.596500	1618.279297	1156.183350
19421.769096	16906.596500	1617.243164	1266.547363
19421.769096	16906.596500	1616.207031	1268.506714
19421.769096	16906.596500	1615.169922	1037.635986
19421.769096	16906.596500	1614.132813	1085.749756
19421.769096	16906.596500	1613.095703	1094.683105
19421.769096	16906.596500	1612.058594	1334.019531
19421.769096	16906.596500	1611.020508	1395.904053
19421.769096	16906.596500	1609.983398	1123.846924
19421.769096	16906.596500	1608.945313	1063.744751
19421.769096	16906.596500	1607.907227	764.263306
19421.769096	16906.596500	1606.868164	1229.069336
19421.769096	16906.596500	1605.830078	1104.606689
19421.769096	16906.596500	1604.791016	1320.724854
19421.769096	16906.596500	1603.751953	1081.316528
19421.769096	16906.596500	1602.712891	1106.511841
19421.769096	16906.596500	1601.673828	1182.311768
19421.769096	16906.596500	1600.633789	1214.422363
19421.769096	16906.596500	1599.594727	1253.451050
19421.769096	16906.596500	1598.554688	1051.189453
19421.769096	16906.596500	1597.513672	1182.187500
19421.769096	16906.596500	1596.473633	1094.941284
19421.769096	16906.596500	1595.433594	1338.492676
19421.769096	16906.596500	1594.392578	989.534119
19421.769096	16906.596500	1593.351563	1203.231079
