#X		#Y		#Wave		#Intensity
19430.927500	16877.951000	2000.043945	212.450760
19430.927500	16877.951000	1999.080078	129.265671
19430.927500	16877.951000	1998.116211	202.239578
19430.927500	16877.951000	1997.151367	7.915033
19430.927500	16877.951000	1996.186523	-247.909363
19430.927500	16877.951000	1995.222656	-168.840759
19430.927500	16877.951000	1994.256836	-74.599098
19430.927500	16877.951000	1993.291992	109.113663
19430.927500	16877.951000	1992.327148	-68.374626
19430.927500	16877.951000	1991.361328	160.500702
19430.927500	16877.951000	1990.395508	70.354767
19430.927500	16877.951000	1989.429688	-91.193008
19430.927500	16877.951000	1988.463867	-4.960617
19430.927500	16877.951000	1987.497070	-17.394529
19430.927500	16877.951000	1986.531250	-123.490776
19430.927500	16877.951000	1985.564453	25.430948
19430.927500	16877.951000	1984.597656	65.815224
19430.927500	16877.951000	1983.630859	249.833633
19430.927500	16877.951000	1982.664063	-33.004307
19430.927500	16877.951000	1981.696289	129.281891
19430.927500	16877.951000	1980.728516	101.561646
19430.927500	16877.951000	1979.761719	106.228706
19430.927500	16877.951000	1978.792969	-54.303642
19430.927500	16877.951000	1977.825195	-93.540390
19430.927500	16877.951000	1976.857422	-51.052959
19430.927500	16877.951000	1975.888672	-141.615784
19430.927500	16877.951000	1974.919922	153.038712
19430.927500	16877.951000	1973.951172	1.262399
19430.927500	16877.951000	1972.982422	219.773422
19430.927500	16877.951000	1972.013672	43.827091
19430.927500	16877.951000	1971.043945	-40.604477
19430.927500	16877.951000	1970.075195	-171.633652
19430.927500	16877.951000	1969.105469	-4.161137
19430.927500	16877.951000	1968.135742	-112.562164
19430.927500	16877.951000	1967.165039	-95.065750
19430.927500	16877.951000	1966.195313	-28.115747
19430.927500	16877.951000	1965.224609	135.054977
19430.927500	16877.951000	1964.253906	140.741501
19430.927500	16877.951000	1963.283203	65.353943
19430.927500	16877.951000	1962.312500	125.556389
19430.927500	16877.951000	1961.341797	13.619430
19430.927500	16877.951000	1960.370117	226.706299
19430.927500	16877.951000	1959.399414	149.556580
19430.927500	16877.951000	1958.427734	23.395319
19430.927500	16877.951000	1957.455078	163.042587
19430.927500	16877.951000	1956.483398	251.144424
19430.927500	16877.951000	1955.511719	-56.457619
19430.927500	16877.951000	1954.539063	142.539566
19430.927500	16877.951000	1953.566406	71.265724
19430.927500	16877.951000	1952.593750	-61.281494
19430.927500	16877.951000	1951.621094	-24.149342
19430.927500	16877.951000	1950.647461	-85.155113
19430.927500	16877.951000	1949.674805	-74.811485
19430.927500	16877.951000	1948.701172	-44.715408
19430.927500	16877.951000	1947.727539	-46.435814
19430.927500	16877.951000	1946.753906	-227.218918
19430.927500	16877.951000	1945.780273	21.592440
19430.927500	16877.951000	1944.805664	-73.069092
19430.927500	16877.951000	1943.831055	-339.310760
19430.927500	16877.951000	1942.856445	-33.931324
19430.927500	16877.951000	1941.881836	136.555679
19430.927500	16877.951000	1940.907227	-82.744125
19430.927500	16877.951000	1939.932617	310.898010
19430.927500	16877.951000	1938.957031	-50.338390
19430.927500	16877.951000	1937.981445	196.284866
19430.927500	16877.951000	1937.005859	-20.124416
19430.927500	16877.951000	1936.030273	113.861885
19430.927500	16877.951000	1935.054688	-136.613190
19430.927500	16877.951000	1934.078125	134.573761
19430.927500	16877.951000	1933.101563	163.366913
19430.927500	16877.951000	1932.125000	-40.313259
19430.927500	16877.951000	1931.148438	-334.412384
19430.927500	16877.951000	1930.171875	42.003815
19430.927500	16877.951000	1929.194336	53.851151
19430.927500	16877.951000	1928.217773	82.846138
19430.927500	16877.951000	1927.240234	-5.502455
19430.927500	16877.951000	1926.262695	60.232929
19430.927500	16877.951000	1925.284180	-28.015970
19430.927500	16877.951000	1924.306641	140.392075
19430.927500	16877.951000	1923.328125	15.557055
19430.927500	16877.951000	1922.350586	-202.048752
19430.927500	16877.951000	1921.372070	73.826202
19430.927500	16877.951000	1920.392578	-55.757393
19430.927500	16877.951000	1919.414063	-295.158264
19430.927500	16877.951000	1918.434570	107.554008
19430.927500	16877.951000	1917.456055	39.069572
19430.927500	16877.951000	1916.476563	-2.538468
19430.927500	16877.951000	1915.497070	109.570770
19430.927500	16877.951000	1914.516602	207.005341
19430.927500	16877.951000	1913.537109	216.595200
19430.927500	16877.951000	1912.556641	60.369648
19430.927500	16877.951000	1911.576172	-29.984579
19430.927500	16877.951000	1910.595703	-122.756012
19430.927500	16877.951000	1909.615234	-66.849365
19430.927500	16877.951000	1908.633789	249.735184
19430.927500	16877.951000	1907.653320	-30.668127
19430.927500	16877.951000	1906.671875	-79.597336
19430.927500	16877.951000	1905.690430	27.320158
19430.927500	16877.951000	1904.708984	0.259913
19430.927500	16877.951000	1903.727539	238.518616
19430.927500	16877.951000	1902.745117	-36.875526
19430.927500	16877.951000	1901.762695	-183.230347
19430.927500	16877.951000	1900.780273	40.237286
19430.927500	16877.951000	1899.797852	64.123032
19430.927500	16877.951000	1898.815430	360.344849
19430.927500	16877.951000	1897.832031	26.648701
19430.927500	16877.951000	1896.849609	50.401150
19430.927500	16877.951000	1895.866211	98.410507
19430.927500	16877.951000	1894.882813	190.098953
19430.927500	16877.951000	1893.898438	106.769020
19430.927500	16877.951000	1892.915039	-93.190720
19430.927500	16877.951000	1891.930664	97.918411
19430.927500	16877.951000	1890.947266	-87.500107
19430.927500	16877.951000	1889.962891	134.990555
19430.927500	16877.951000	1888.977539	-103.873116
19430.927500	16877.951000	1887.993164	-133.987015
19430.927500	16877.951000	1887.007813	71.228996
19430.927500	16877.951000	1886.023438	-56.072819
19430.927500	16877.951000	1885.038086	68.880836
19430.927500	16877.951000	1884.051758	254.355896
19430.927500	16877.951000	1883.066406	-173.765427
19430.927500	16877.951000	1882.081055	55.184547
19430.927500	16877.951000	1881.094727	90.078278
19430.927500	16877.951000	1880.108398	83.690826
19430.927500	16877.951000	1879.122070	222.607819
19430.927500	16877.951000	1878.135742	199.095551
19430.927500	16877.951000	1877.148438	209.428665
19430.927500	16877.951000	1876.162109	35.640995
19430.927500	16877.951000	1875.174805	111.217644
19430.927500	16877.951000	1874.187500	266.569061
19430.927500	16877.951000	1873.199219	-108.237335
19430.927500	16877.951000	1872.211914	119.529297
19430.927500	16877.951000	1871.223633	6.011768
19430.927500	16877.951000	1870.236328	-109.967880
19430.927500	16877.951000	1869.248047	160.956497
19430.927500	16877.951000	1868.258789	93.187004
19430.927500	16877.951000	1867.270508	-114.859993
19430.927500	16877.951000	1866.282227	56.556625
19430.927500	16877.951000	1865.292969	90.079041
19430.927500	16877.951000	1864.303711	26.855104
19430.927500	16877.951000	1863.314453	11.878112
19430.927500	16877.951000	1862.324219	274.567383
19430.927500	16877.951000	1861.334961	-143.896790
19430.927500	16877.951000	1860.344727	-149.448395
19430.927500	16877.951000	1859.354492	79.051208
19430.927500	16877.951000	1858.364258	-20.849850
19430.927500	16877.951000	1857.374023	178.395569
19430.927500	16877.951000	1856.383789	102.446968
19430.927500	16877.951000	1855.392578	91.557167
19430.927500	16877.951000	1854.401367	222.858582
19430.927500	16877.951000	1853.410156	281.677795
19430.927500	16877.951000	1852.418945	137.880386
19430.927500	16877.951000	1851.426758	254.342972
19430.927500	16877.951000	1850.435547	430.906372
19430.927500	16877.951000	1849.443359	147.123077
19430.927500	16877.951000	1848.451172	246.355682
19430.927500	16877.951000	1847.458984	172.044189
19430.927500	16877.951000	1846.466797	254.176422
19430.927500	16877.951000	1845.473633	66.535744
19430.927500	16877.951000	1844.480469	-12.820401
19430.927500	16877.951000	1843.487305	-58.557415
19430.927500	16877.951000	1842.494141	124.202278
19430.927500	16877.951000	1841.500977	277.922241
19430.927500	16877.951000	1840.506836	130.823883
19430.927500	16877.951000	1839.513672	-4.299329
19430.927500	16877.951000	1838.519531	103.360947
19430.927500	16877.951000	1837.525391	35.392307
19430.927500	16877.951000	1836.530273	8.200425
19430.927500	16877.951000	1835.536133	4.943936
19430.927500	16877.951000	1834.541016	85.669678
19430.927500	16877.951000	1833.545898	171.063416
19430.927500	16877.951000	1832.550781	162.654312
19430.927500	16877.951000	1831.555664	7.669772
19430.927500	16877.951000	1830.560547	116.716164
19430.927500	16877.951000	1829.564453	187.209320
19430.927500	16877.951000	1828.568359	233.569962
19430.927500	16877.951000	1827.572266	145.441635
19430.927500	16877.951000	1826.576172	110.014732
19430.927500	16877.951000	1825.580078	249.580276
19430.927500	16877.951000	1824.583008	225.920868
19430.927500	16877.951000	1823.585938	221.342606
19430.927500	16877.951000	1822.588867	84.817245
19430.927500	16877.951000	1821.591797	-6.227406
19430.927500	16877.951000	1820.594727	-27.856695
19430.927500	16877.951000	1819.596680	103.740837
19430.927500	16877.951000	1818.599609	218.415176
19430.927500	16877.951000	1817.601563	-38.262703
19430.927500	16877.951000	1816.603516	-69.879379
19430.927500	16877.951000	1815.604492	-94.412804
19430.927500	16877.951000	1814.606445	-174.091202
19430.927500	16877.951000	1813.607422	-67.192978
19430.927500	16877.951000	1812.608398	-46.574749
19430.927500	16877.951000	1811.609375	-112.188416
19430.927500	16877.951000	1810.610352	125.858856
19430.927500	16877.951000	1809.610352	-90.626244
19430.927500	16877.951000	1808.611328	276.216309
19430.927500	16877.951000	1807.611328	104.987808
19430.927500	16877.951000	1806.611328	124.908539
19430.927500	16877.951000	1805.610352	111.260429
19430.927500	16877.951000	1804.610352	109.460037
19430.927500	16877.951000	1803.609375	169.653824
19430.927500	16877.951000	1802.608398	19.570324
19430.927500	16877.951000	1801.607422	24.632805
19430.927500	16877.951000	1800.606445	-30.088020
19430.927500	16877.951000	1799.605469	91.722725
19430.927500	16877.951000	1798.603516	105.999687
19430.927500	16877.951000	1797.601563	-120.798515
19430.927500	16877.951000	1796.599609	-73.298370
19430.927500	16877.951000	1795.597656	14.624617
19430.927500	16877.951000	1794.595703	-131.263428
19430.927500	16877.951000	1793.592773	27.950224
19430.927500	16877.951000	1792.589844	-141.927582
19430.927500	16877.951000	1791.587891	140.951385
19430.927500	16877.951000	1790.583984	85.277931
19430.927500	16877.951000	1789.581055	208.195358
19430.927500	16877.951000	1788.577148	245.219452
19430.927500	16877.951000	1787.574219	-36.957211
19430.927500	16877.951000	1786.570313	-47.713722
19430.927500	16877.951000	1785.566406	3.325854
19430.927500	16877.951000	1784.561523	-26.674511
19430.927500	16877.951000	1783.557617	59.839859
19430.927500	16877.951000	1782.552734	-193.981506
19430.927500	16877.951000	1781.547852	11.265074
19430.927500	16877.951000	1780.542969	102.187691
19430.927500	16877.951000	1779.538086	-185.068466
19430.927500	16877.951000	1778.532227	-49.168987
19430.927500	16877.951000	1777.527344	-229.519989
19430.927500	16877.951000	1776.521484	-72.461212
19430.927500	16877.951000	1775.515625	-141.263184
19430.927500	16877.951000	1774.508789	-55.733406
19430.927500	16877.951000	1773.502930	-160.317291
19430.927500	16877.951000	1772.496094	72.223877
19430.927500	16877.951000	1771.489258	45.813301
19430.927500	16877.951000	1770.482422	-260.762115
19430.927500	16877.951000	1769.475586	-38.092430
19430.927500	16877.951000	1768.467773	-133.544174
19430.927500	16877.951000	1767.460938	27.164835
19430.927500	16877.951000	1766.453125	-39.973709
19430.927500	16877.951000	1765.445313	-135.627838
19430.927500	16877.951000	1764.437500	-328.536987
19430.927500	16877.951000	1763.428711	83.004265
19430.927500	16877.951000	1762.420898	110.372650
19430.927500	16877.951000	1761.412109	-77.989700
19430.927500	16877.951000	1760.403320	-316.111694
19430.927500	16877.951000	1759.393555	-68.655441
19430.927500	16877.951000	1758.384766	-29.767920
19430.927500	16877.951000	1757.375000	-178.034927
19430.927500	16877.951000	1756.366211	40.618511
19430.927500	16877.951000	1755.356445	53.186405
19430.927500	16877.951000	1754.345703	-36.089355
19430.927500	16877.951000	1753.335938	-217.671448
19430.927500	16877.951000	1752.325195	-146.157059
19430.927500	16877.951000	1751.315430	192.514847
19430.927500	16877.951000	1750.304688	126.630615
19430.927500	16877.951000	1749.292969	280.557159
19430.927500	16877.951000	1748.282227	290.176300
19430.927500	16877.951000	1747.270508	101.200699
19430.927500	16877.951000	1746.259766	491.122803
19430.927500	16877.951000	1745.248047	476.856232
19430.927500	16877.951000	1744.235352	356.234741
19430.927500	16877.951000	1743.223633	261.576355
19430.927500	16877.951000	1742.211914	369.934967
19430.927500	16877.951000	1741.199219	367.232391
19430.927500	16877.951000	1740.186523	541.475342
19430.927500	16877.951000	1739.173828	809.974426
19430.927500	16877.951000	1738.160156	554.557495
19430.927500	16877.951000	1737.147461	763.859680
19430.927500	16877.951000	1736.133789	623.985107
19430.927500	16877.951000	1735.120117	701.026672
19430.927500	16877.951000	1734.106445	457.374084
19430.927500	16877.951000	1733.091797	506.009338
19430.927500	16877.951000	1732.078125	637.057312
19430.927500	16877.951000	1731.063477	558.301270
19430.927500	16877.951000	1730.048828	333.475128
19430.927500	16877.951000	1729.034180	367.746887
19430.927500	16877.951000	1728.019531	444.338196
19430.927500	16877.951000	1727.003906	452.565826
19430.927500	16877.951000	1725.988281	260.666779
19430.927500	16877.951000	1724.972656	78.205559
19430.927500	16877.951000	1723.957031	335.757416
19430.927500	16877.951000	1722.941406	423.787231
19430.927500	16877.951000	1721.924805	410.591003
19430.927500	16877.951000	1720.909180	547.863037
19430.927500	16877.951000	1719.892578	663.869019
19430.927500	16877.951000	1718.875977	314.358093
19430.927500	16877.951000	1717.858398	181.147491
19430.927500	16877.951000	1716.841797	113.749252
19430.927500	16877.951000	1715.824219	356.434662
19430.927500	16877.951000	1714.806641	133.914841
19430.927500	16877.951000	1713.789063	343.547302
19430.927500	16877.951000	1712.770508	123.377724
19430.927500	16877.951000	1711.752930	175.575684
19430.927500	16877.951000	1710.734375	347.408234
19430.927500	16877.951000	1709.715820	-222.384003
19430.927500	16877.951000	1708.697266	301.314270
19430.927500	16877.951000	1707.678711	163.292221
19430.927500	16877.951000	1706.659180	234.008469
19430.927500	16877.951000	1705.640625	-173.661041
19430.927500	16877.951000	1704.621094	215.865875
19430.927500	16877.951000	1703.600586	284.091187
19430.927500	16877.951000	1702.581055	-57.830654
19430.927500	16877.951000	1701.561523	221.248352
19430.927500	16877.951000	1700.541016	-158.071686
19430.927500	16877.951000	1699.520508	170.043854
19430.927500	16877.951000	1698.500000	90.564781
19430.927500	16877.951000	1697.478516	448.887054
19430.927500	16877.951000	1696.458008	137.608673
19430.927500	16877.951000	1695.436523	114.275345
19430.927500	16877.951000	1694.415039	313.218842
19430.927500	16877.951000	1693.393555	287.486115
19430.927500	16877.951000	1692.372070	41.885887
19430.927500	16877.951000	1691.349609	76.974159
19430.927500	16877.951000	1690.327148	411.304443
19430.927500	16877.951000	1689.304688	401.866089
19430.927500	16877.951000	1688.282227	478.895477
19430.927500	16877.951000	1687.259766	252.110535
19430.927500	16877.951000	1686.236328	252.009598
19430.927500	16877.951000	1685.213867	417.751434
19430.927500	16877.951000	1684.190430	359.218445
19430.927500	16877.951000	1683.166016	141.916626
19430.927500	16877.951000	1682.142578	249.192169
19430.927500	16877.951000	1681.119141	398.434113
19430.927500	16877.951000	1680.094727	370.254120
19430.927500	16877.951000	1679.070313	146.100235
19430.927500	16877.951000	1678.045898	92.315331
19430.927500	16877.951000	1677.020508	344.059875
19430.927500	16877.951000	1675.996094	64.077583
19430.927500	16877.951000	1674.970703	17.325089
19430.927500	16877.951000	1673.945313	-90.010292
19430.927500	16877.951000	1672.919922	156.923065
19430.927500	16877.951000	1671.893555	-66.896942
19430.927500	16877.951000	1670.868164	254.491058
19430.927500	16877.951000	1669.841797	221.733276
19430.927500	16877.951000	1668.815430	-34.549465
19430.927500	16877.951000	1667.789063	100.406555
19430.927500	16877.951000	1666.761719	58.402554
19430.927500	16877.951000	1665.735352	137.454437
19430.927500	16877.951000	1664.708008	423.564972
19430.927500	16877.951000	1663.680664	221.039459
19430.927500	16877.951000	1662.653320	158.162155
19430.927500	16877.951000	1661.625000	367.392548
19430.927500	16877.951000	1660.597656	311.517792
19430.927500	16877.951000	1659.569336	302.160980
19430.927500	16877.951000	1658.541016	332.337280
19430.927500	16877.951000	1657.512695	181.274246
19430.927500	16877.951000	1656.483398	323.005707
19430.927500	16877.951000	1655.455078	469.357635
19430.927500	16877.951000	1654.425781	462.392822
19430.927500	16877.951000	1653.396484	485.637970
19430.927500	16877.951000	1652.366211	515.851624
19430.927500	16877.951000	1651.336914	687.670105
19430.927500	16877.951000	1650.306641	1017.232483
19430.927500	16877.951000	1649.276367	731.874084
19430.927500	16877.951000	1648.246094	919.857544
19430.927500	16877.951000	1647.215820	1079.966919
19430.927500	16877.951000	1646.185547	804.123291
19430.927500	16877.951000	1645.154297	971.200500
19430.927500	16877.951000	1644.123047	1054.801147
19430.927500	16877.951000	1643.091797	1105.961304
19430.927500	16877.951000	1642.060547	1493.088135
19430.927500	16877.951000	1641.028320	1363.514893
19430.927500	16877.951000	1639.997070	1328.994141
19430.927500	16877.951000	1638.964844	1746.054443
19430.927500	16877.951000	1637.931641	1808.765015
19430.927500	16877.951000	1636.899414	1952.511475
19430.927500	16877.951000	1635.867188	1887.962646
19430.927500	16877.951000	1634.833984	1772.563110
19430.927500	16877.951000	1633.800781	2020.446411
19430.927500	16877.951000	1632.767578	2226.644531
19430.927500	16877.951000	1631.734375	2196.934082
19430.927500	16877.951000	1630.700195	2206.575928
19430.927500	16877.951000	1629.666016	2304.096191
19430.927500	16877.951000	1628.631836	2510.247314
19430.927500	16877.951000	1627.597656	2473.745117
19430.927500	16877.951000	1626.563477	2675.256836
19430.927500	16877.951000	1625.528320	2708.117676
19430.927500	16877.951000	1624.493164	2777.962646
19430.927500	16877.951000	1623.458008	2616.947021
19430.927500	16877.951000	1622.422852	2636.098877
19430.927500	16877.951000	1621.387695	2417.577148
19430.927500	16877.951000	1620.351563	2621.458252
19430.927500	16877.951000	1619.315430	2359.286865
19430.927500	16877.951000	1618.279297	2293.334961
19430.927500	16877.951000	1617.243164	2351.998291
19430.927500	16877.951000	1616.207031	2260.822510
19430.927500	16877.951000	1615.169922	1973.782104
19430.927500	16877.951000	1614.132813	1912.785156
19430.927500	16877.951000	1613.095703	1980.914307
19430.927500	16877.951000	1612.058594	1947.703735
19430.927500	16877.951000	1611.020508	1923.772705
19430.927500	16877.951000	1609.983398	1411.679688
19430.927500	16877.951000	1608.945313	1546.864136
19430.927500	16877.951000	1607.907227	1481.774292
19430.927500	16877.951000	1606.868164	1326.998779
19430.927500	16877.951000	1605.830078	1453.106934
19430.927500	16877.951000	1604.791016	1498.695190
19430.927500	16877.951000	1603.751953	1693.854126
19430.927500	16877.951000	1602.712891	1780.908569
19430.927500	16877.951000	1601.673828	1688.640747
19430.927500	16877.951000	1600.633789	1798.781860
19430.927500	16877.951000	1599.594727	1796.326294
19430.927500	16877.951000	1598.554688	1855.982544
19430.927500	16877.951000	1597.513672	1722.679077
19430.927500	16877.951000	1596.473633	2014.484131
19430.927500	16877.951000	1595.433594	1814.746338
19430.927500	16877.951000	1594.392578	2007.816772
19430.927500	16877.951000	1593.351563	1978.189697
