#X		#Y		#Wave		#Intensity
19491.967340	16966.419000	2000.043945	82.890526
19491.967340	16966.419000	1999.080078	210.229385
19491.967340	16966.419000	1998.116211	75.455521
19491.967340	16966.419000	1997.151367	49.582703
19491.967340	16966.419000	1996.186523	-65.670158
19491.967340	16966.419000	1995.222656	9.666565
19491.967340	16966.419000	1994.256836	-162.864136
19491.967340	16966.419000	1993.291992	26.021048
19491.967340	16966.419000	1992.327148	16.594791
19491.967340	16966.419000	1991.361328	-116.759689
19491.967340	16966.419000	1990.395508	190.311920
19491.967340	16966.419000	1989.429688	252.132553
19491.967340	16966.419000	1988.463867	-67.223007
19491.967340	16966.419000	1987.497070	-116.985809
19491.967340	16966.419000	1986.531250	1.284022
19491.967340	16966.419000	1985.564453	383.947815
19491.967340	16966.419000	1984.597656	168.061584
19491.967340	16966.419000	1983.630859	-18.220219
19491.967340	16966.419000	1982.664063	272.389618
19491.967340	16966.419000	1981.696289	38.961441
19491.967340	16966.419000	1980.728516	-159.921112
19491.967340	16966.419000	1979.761719	120.302559
19491.967340	16966.419000	1978.792969	269.440277
19491.967340	16966.419000	1977.825195	243.103622
19491.967340	16966.419000	1976.857422	295.659271
19491.967340	16966.419000	1975.888672	59.332676
19491.967340	16966.419000	1974.919922	8.061296
19491.967340	16966.419000	1973.951172	52.928539
19491.967340	16966.419000	1972.982422	-72.519348
19491.967340	16966.419000	1972.013672	120.127068
19491.967340	16966.419000	1971.043945	-76.971992
19491.967340	16966.419000	1970.075195	-128.637466
19491.967340	16966.419000	1969.105469	137.601990
19491.967340	16966.419000	1968.135742	-15.284698
19491.967340	16966.419000	1967.165039	122.557388
19491.967340	16966.419000	1966.195313	-25.498892
19491.967340	16966.419000	1965.224609	149.087219
19491.967340	16966.419000	1964.253906	74.819862
19491.967340	16966.419000	1963.283203	-4.411596
19491.967340	16966.419000	1962.312500	359.416901
19491.967340	16966.419000	1961.341797	97.903526
19491.967340	16966.419000	1960.370117	134.181625
19491.967340	16966.419000	1959.399414	167.921478
19491.967340	16966.419000	1958.427734	4.812881
19491.967340	16966.419000	1957.455078	45.844261
19491.967340	16966.419000	1956.483398	22.869680
19491.967340	16966.419000	1955.511719	272.742767
19491.967340	16966.419000	1954.539063	136.574692
19491.967340	16966.419000	1953.566406	174.898972
19491.967340	16966.419000	1952.593750	252.475464
19491.967340	16966.419000	1951.621094	-90.098198
19491.967340	16966.419000	1950.647461	-54.330349
19491.967340	16966.419000	1949.674805	-124.214287
19491.967340	16966.419000	1948.701172	-181.827347
19491.967340	16966.419000	1947.727539	-1.339158
19491.967340	16966.419000	1946.753906	-5.025345
19491.967340	16966.419000	1945.780273	5.980988
19491.967340	16966.419000	1944.805664	-230.836807
19491.967340	16966.419000	1943.831055	54.886745
19491.967340	16966.419000	1942.856445	396.885590
19491.967340	16966.419000	1941.881836	111.006943
19491.967340	16966.419000	1940.907227	215.015869
19491.967340	16966.419000	1939.932617	81.200905
19491.967340	16966.419000	1938.957031	172.884811
19491.967340	16966.419000	1937.981445	26.841190
19491.967340	16966.419000	1937.005859	86.614265
19491.967340	16966.419000	1936.030273	192.886902
19491.967340	16966.419000	1935.054688	103.193512
19491.967340	16966.419000	1934.078125	-23.202034
19491.967340	16966.419000	1933.101563	-10.032100
19491.967340	16966.419000	1932.125000	-50.725304
19491.967340	16966.419000	1931.148438	-128.118500
19491.967340	16966.419000	1930.171875	134.578354
19491.967340	16966.419000	1929.194336	35.148460
19491.967340	16966.419000	1928.217773	175.414993
19491.967340	16966.419000	1927.240234	-114.728607
19491.967340	16966.419000	1926.262695	8.391383
19491.967340	16966.419000	1925.284180	248.790390
19491.967340	16966.419000	1924.306641	-9.454578
19491.967340	16966.419000	1923.328125	-23.266659
19491.967340	16966.419000	1922.350586	72.851044
19491.967340	16966.419000	1921.372070	256.863953
19491.967340	16966.419000	1920.392578	-6.078824
19491.967340	16966.419000	1919.414063	-107.789070
19491.967340	16966.419000	1918.434570	-55.666698
19491.967340	16966.419000	1917.456055	152.630783
19491.967340	16966.419000	1916.476563	33.867451
19491.967340	16966.419000	1915.497070	390.900330
19491.967340	16966.419000	1914.516602	-147.413757
19491.967340	16966.419000	1913.537109	158.304733
19491.967340	16966.419000	1912.556641	17.692770
19491.967340	16966.419000	1911.576172	-10.720843
19491.967340	16966.419000	1910.595703	97.376762
19491.967340	16966.419000	1909.615234	159.132416
19491.967340	16966.419000	1908.633789	184.324692
19491.967340	16966.419000	1907.653320	133.987228
19491.967340	16966.419000	1906.671875	-142.838821
19491.967340	16966.419000	1905.690430	-12.880677
19491.967340	16966.419000	1904.708984	216.856018
19491.967340	16966.419000	1903.727539	-35.476181
19491.967340	16966.419000	1902.745117	-61.358589
19491.967340	16966.419000	1901.762695	-23.959940
19491.967340	16966.419000	1900.780273	-20.631659
19491.967340	16966.419000	1899.797852	45.944729
19491.967340	16966.419000	1898.815430	246.261505
19491.967340	16966.419000	1897.832031	-59.250614
19491.967340	16966.419000	1896.849609	-46.173550
19491.967340	16966.419000	1895.866211	-52.538555
19491.967340	16966.419000	1894.882813	-12.721571
19491.967340	16966.419000	1893.898438	34.379940
19491.967340	16966.419000	1892.915039	45.023788
19491.967340	16966.419000	1891.930664	-14.762727
19491.967340	16966.419000	1890.947266	-171.661301
19491.967340	16966.419000	1889.962891	-34.712997
19491.967340	16966.419000	1888.977539	-7.042900
19491.967340	16966.419000	1887.993164	-355.569092
19491.967340	16966.419000	1887.007813	-109.449883
19491.967340	16966.419000	1886.023438	10.418095
19491.967340	16966.419000	1885.038086	137.528885
19491.967340	16966.419000	1884.051758	286.427246
19491.967340	16966.419000	1883.066406	-25.431976
19491.967340	16966.419000	1882.081055	-22.012798
19491.967340	16966.419000	1881.094727	158.351608
19491.967340	16966.419000	1880.108398	26.038933
19491.967340	16966.419000	1879.122070	-113.492073
19491.967340	16966.419000	1878.135742	18.348198
19491.967340	16966.419000	1877.148438	-150.181656
19491.967340	16966.419000	1876.162109	-3.849586
19491.967340	16966.419000	1875.174805	-12.515120
19491.967340	16966.419000	1874.187500	385.494263
19491.967340	16966.419000	1873.199219	-5.625402
19491.967340	16966.419000	1872.211914	-123.169434
19491.967340	16966.419000	1871.223633	15.779939
19491.967340	16966.419000	1870.236328	60.339466
19491.967340	16966.419000	1869.248047	-216.758652
19491.967340	16966.419000	1868.258789	-160.073334
19491.967340	16966.419000	1867.270508	-79.239807
19491.967340	16966.419000	1866.282227	-189.382401
19491.967340	16966.419000	1865.292969	394.075745
19491.967340	16966.419000	1864.303711	-192.085556
19491.967340	16966.419000	1863.314453	11.891162
19491.967340	16966.419000	1862.324219	174.735046
19491.967340	16966.419000	1861.334961	180.551086
19491.967340	16966.419000	1860.344727	-6.776265
19491.967340	16966.419000	1859.354492	119.763290
19491.967340	16966.419000	1858.364258	-31.289633
19491.967340	16966.419000	1857.374023	100.023529
19491.967340	16966.419000	1856.383789	-87.164818
19491.967340	16966.419000	1855.392578	307.016968
19491.967340	16966.419000	1854.401367	-56.190315
19491.967340	16966.419000	1853.410156	21.966776
19491.967340	16966.419000	1852.418945	10.894070
19491.967340	16966.419000	1851.426758	64.900681
19491.967340	16966.419000	1850.435547	121.283073
19491.967340	16966.419000	1849.443359	158.366928
19491.967340	16966.419000	1848.451172	289.375458
19491.967340	16966.419000	1847.458984	124.089432
19491.967340	16966.419000	1846.466797	11.832657
19491.967340	16966.419000	1845.473633	-141.314362
19491.967340	16966.419000	1844.480469	88.307159
19491.967340	16966.419000	1843.487305	-26.311049
19491.967340	16966.419000	1842.494141	188.742661
19491.967340	16966.419000	1841.500977	129.456100
19491.967340	16966.419000	1840.506836	53.349201
19491.967340	16966.419000	1839.513672	-118.939583
19491.967340	16966.419000	1838.519531	26.200325
19491.967340	16966.419000	1837.525391	248.197311
19491.967340	16966.419000	1836.530273	198.514603
19491.967340	16966.419000	1835.536133	293.009521
19491.967340	16966.419000	1834.541016	-81.035622
19491.967340	16966.419000	1833.545898	361.752960
19491.967340	16966.419000	1832.550781	129.501740
19491.967340	16966.419000	1831.555664	159.048141
19491.967340	16966.419000	1830.560547	32.520638
19491.967340	16966.419000	1829.564453	306.872559
19491.967340	16966.419000	1828.568359	221.131989
19491.967340	16966.419000	1827.572266	188.191116
19491.967340	16966.419000	1826.576172	457.506470
19491.967340	16966.419000	1825.580078	134.282715
19491.967340	16966.419000	1824.583008	-20.974207
19491.967340	16966.419000	1823.585938	173.849899
19491.967340	16966.419000	1822.588867	143.252640
19491.967340	16966.419000	1821.591797	28.762846
19491.967340	16966.419000	1820.594727	115.575401
19491.967340	16966.419000	1819.596680	183.172760
19491.967340	16966.419000	1818.599609	118.975403
19491.967340	16966.419000	1817.601563	81.128342
19491.967340	16966.419000	1816.603516	7.355281
19491.967340	16966.419000	1815.604492	335.773376
19491.967340	16966.419000	1814.606445	384.000549
19491.967340	16966.419000	1813.607422	46.910175
19491.967340	16966.419000	1812.608398	-237.439957
19491.967340	16966.419000	1811.609375	59.578667
19491.967340	16966.419000	1810.610352	155.559372
19491.967340	16966.419000	1809.610352	359.085968
19491.967340	16966.419000	1808.611328	48.489635
19491.967340	16966.419000	1807.611328	239.953979
19491.967340	16966.419000	1806.611328	-58.605602
19491.967340	16966.419000	1805.610352	-75.122955
19491.967340	16966.419000	1804.610352	484.073151
19491.967340	16966.419000	1803.609375	350.363403
19491.967340	16966.419000	1802.608398	171.303955
19491.967340	16966.419000	1801.607422	197.615143
19491.967340	16966.419000	1800.606445	331.310303
19491.967340	16966.419000	1799.605469	154.652740
19491.967340	16966.419000	1798.603516	-81.623604
19491.967340	16966.419000	1797.601563	90.133301
19491.967340	16966.419000	1796.599609	154.452423
19491.967340	16966.419000	1795.597656	168.632248
19491.967340	16966.419000	1794.595703	-62.823643
19491.967340	16966.419000	1793.592773	189.732651
19491.967340	16966.419000	1792.589844	368.267761
19491.967340	16966.419000	1791.587891	155.873520
19491.967340	16966.419000	1790.583984	191.326035
19491.967340	16966.419000	1789.581055	105.239212
19491.967340	16966.419000	1788.577148	250.180420
19491.967340	16966.419000	1787.574219	245.009521
19491.967340	16966.419000	1786.570313	330.280090
19491.967340	16966.419000	1785.566406	53.666115
19491.967340	16966.419000	1784.561523	65.094498
19491.967340	16966.419000	1783.557617	36.030891
19491.967340	16966.419000	1782.552734	240.091110
19491.967340	16966.419000	1781.547852	84.871185
19491.967340	16966.419000	1780.542969	-46.545162
19491.967340	16966.419000	1779.538086	55.066467
19491.967340	16966.419000	1778.532227	52.005882
19491.967340	16966.419000	1777.527344	193.889572
19491.967340	16966.419000	1776.521484	335.686493
19491.967340	16966.419000	1775.515625	225.549561
19491.967340	16966.419000	1774.508789	155.799942
19491.967340	16966.419000	1773.502930	-56.461182
19491.967340	16966.419000	1772.496094	305.957550
19491.967340	16966.419000	1771.489258	-51.142365
19491.967340	16966.419000	1770.482422	213.742844
19491.967340	16966.419000	1769.475586	234.050491
19491.967340	16966.419000	1768.467773	266.179749
19491.967340	16966.419000	1767.460938	523.620911
19491.967340	16966.419000	1766.453125	477.334473
19491.967340	16966.419000	1765.445313	274.514832
19491.967340	16966.419000	1764.437500	40.911831
19491.967340	16966.419000	1763.428711	51.520164
19491.967340	16966.419000	1762.420898	137.920441
19491.967340	16966.419000	1761.412109	266.902863
19491.967340	16966.419000	1760.403320	211.005783
19491.967340	16966.419000	1759.393555	176.411240
19491.967340	16966.419000	1758.384766	217.569351
19491.967340	16966.419000	1757.375000	17.160641
19491.967340	16966.419000	1756.366211	-5.663435
19491.967340	16966.419000	1755.356445	28.285357
19491.967340	16966.419000	1754.345703	-93.999001
19491.967340	16966.419000	1753.335938	-225.743713
19491.967340	16966.419000	1752.325195	115.625938
19491.967340	16966.419000	1751.315430	199.029419
19491.967340	16966.419000	1750.304688	244.531555
19491.967340	16966.419000	1749.292969	226.143951
19491.967340	16966.419000	1748.282227	-132.653152
19491.967340	16966.419000	1747.270508	-136.865433
19491.967340	16966.419000	1746.259766	-162.381622
19491.967340	16966.419000	1745.248047	-69.811066
19491.967340	16966.419000	1744.235352	317.924316
19491.967340	16966.419000	1743.223633	-116.315956
19491.967340	16966.419000	1742.211914	-151.422455
19491.967340	16966.419000	1741.199219	68.383942
19491.967340	16966.419000	1740.186523	-30.544981
19491.967340	16966.419000	1739.173828	49.853344
19491.967340	16966.419000	1738.160156	-77.425224
19491.967340	16966.419000	1737.147461	68.916901
19491.967340	16966.419000	1736.133789	94.890839
19491.967340	16966.419000	1735.120117	139.678680
19491.967340	16966.419000	1734.106445	-4.184295
19491.967340	16966.419000	1733.091797	-4.257085
19491.967340	16966.419000	1732.078125	224.209488
19491.967340	16966.419000	1731.063477	54.376610
19491.967340	16966.419000	1730.048828	-18.848810
19491.967340	16966.419000	1729.034180	-87.378723
19491.967340	16966.419000	1728.019531	-16.992260
19491.967340	16966.419000	1727.003906	171.040482
19491.967340	16966.419000	1725.988281	121.228149
19491.967340	16966.419000	1724.972656	137.289688
19491.967340	16966.419000	1723.957031	-131.393845
19491.967340	16966.419000	1722.941406	98.705086
19491.967340	16966.419000	1721.924805	-2.953298
19491.967340	16966.419000	1720.909180	-109.316185
19491.967340	16966.419000	1719.892578	-178.057114
19491.967340	16966.419000	1718.875977	-61.108509
19491.967340	16966.419000	1717.858398	-82.902855
19491.967340	16966.419000	1716.841797	-128.226868
19491.967340	16966.419000	1715.824219	-37.309036
19491.967340	16966.419000	1714.806641	-42.765205
19491.967340	16966.419000	1713.789063	-386.427155
19491.967340	16966.419000	1712.770508	-93.698181
19491.967340	16966.419000	1711.752930	198.881454
19491.967340	16966.419000	1710.734375	59.456024
19491.967340	16966.419000	1709.715820	-108.111618
19491.967340	16966.419000	1708.697266	66.887817
19491.967340	16966.419000	1707.678711	230.056198
19491.967340	16966.419000	1706.659180	-141.590027
19491.967340	16966.419000	1705.640625	-238.785980
19491.967340	16966.419000	1704.621094	-40.590870
19491.967340	16966.419000	1703.600586	52.017025
19491.967340	16966.419000	1702.581055	78.941460
19491.967340	16966.419000	1701.561523	14.443002
19491.967340	16966.419000	1700.541016	-80.516731
19491.967340	16966.419000	1699.520508	260.159882
19491.967340	16966.419000	1698.500000	127.656822
19491.967340	16966.419000	1697.478516	-70.378845
19491.967340	16966.419000	1696.458008	-76.429657
19491.967340	16966.419000	1695.436523	170.243500
19491.967340	16966.419000	1694.415039	133.668106
19491.967340	16966.419000	1693.393555	15.198089
19491.967340	16966.419000	1692.372070	51.113140
19491.967340	16966.419000	1691.349609	-125.818687
19491.967340	16966.419000	1690.327148	185.940018
19491.967340	16966.419000	1689.304688	-23.735348
19491.967340	16966.419000	1688.282227	184.991592
19491.967340	16966.419000	1687.259766	122.552902
19491.967340	16966.419000	1686.236328	27.402082
19491.967340	16966.419000	1685.213867	93.432243
19491.967340	16966.419000	1684.190430	264.499176
19491.967340	16966.419000	1683.166016	318.728210
19491.967340	16966.419000	1682.142578	298.208008
19491.967340	16966.419000	1681.119141	352.358765
19491.967340	16966.419000	1680.094727	-8.911002
19491.967340	16966.419000	1679.070313	-43.432709
19491.967340	16966.419000	1678.045898	250.940598
19491.967340	16966.419000	1677.020508	234.994308
19491.967340	16966.419000	1675.996094	379.920807
19491.967340	16966.419000	1674.970703	114.456360
19491.967340	16966.419000	1673.945313	-53.031071
19491.967340	16966.419000	1672.919922	560.210938
19491.967340	16966.419000	1671.893555	189.952133
19491.967340	16966.419000	1670.868164	364.920227
19491.967340	16966.419000	1669.841797	362.790771
19491.967340	16966.419000	1668.815430	290.783417
19491.967340	16966.419000	1667.789063	290.959198
19491.967340	16966.419000	1666.761719	591.388550
19491.967340	16966.419000	1665.735352	335.467438
19491.967340	16966.419000	1664.708008	428.650482
19491.967340	16966.419000	1663.680664	165.844955
19491.967340	16966.419000	1662.653320	265.967438
19491.967340	16966.419000	1661.625000	307.896820
19491.967340	16966.419000	1660.597656	266.093689
19491.967340	16966.419000	1659.569336	526.485291
19491.967340	16966.419000	1658.541016	273.131256
19491.967340	16966.419000	1657.512695	87.246994
19491.967340	16966.419000	1656.483398	519.396973
19491.967340	16966.419000	1655.455078	154.655151
19491.967340	16966.419000	1654.425781	417.071716
19491.967340	16966.419000	1653.396484	391.460297
19491.967340	16966.419000	1652.366211	470.309174
19491.967340	16966.419000	1651.336914	358.799835
19491.967340	16966.419000	1650.306641	604.681580
19491.967340	16966.419000	1649.276367	363.244690
19491.967340	16966.419000	1648.246094	316.737793
19491.967340	16966.419000	1647.215820	360.690796
19491.967340	16966.419000	1646.185547	638.809387
19491.967340	16966.419000	1645.154297	615.435242
19491.967340	16966.419000	1644.123047	659.280579
19491.967340	16966.419000	1643.091797	677.611572
19491.967340	16966.419000	1642.060547	410.946503
19491.967340	16966.419000	1641.028320	538.181702
19491.967340	16966.419000	1639.997070	771.903137
19491.967340	16966.419000	1638.964844	729.971375
19491.967340	16966.419000	1637.931641	986.707275
19491.967340	16966.419000	1636.899414	660.038757
19491.967340	16966.419000	1635.867188	701.457764
19491.967340	16966.419000	1634.833984	620.229980
19491.967340	16966.419000	1633.800781	400.231659
19491.967340	16966.419000	1632.767578	672.963379
19491.967340	16966.419000	1631.734375	776.783203
19491.967340	16966.419000	1630.700195	607.745850
19491.967340	16966.419000	1629.666016	674.555603
19491.967340	16966.419000	1628.631836	801.428040
19491.967340	16966.419000	1627.597656	667.150818
19491.967340	16966.419000	1626.563477	819.396484
19491.967340	16966.419000	1625.528320	802.971619
19491.967340	16966.419000	1624.493164	855.838501
19491.967340	16966.419000	1623.458008	938.706726
19491.967340	16966.419000	1622.422852	629.117920
19491.967340	16966.419000	1621.387695	792.787537
19491.967340	16966.419000	1620.351563	931.018372
19491.967340	16966.419000	1619.315430	963.077271
19491.967340	16966.419000	1618.279297	748.326233
19491.967340	16966.419000	1617.243164	923.408447
19491.967340	16966.419000	1616.207031	856.332336
19491.967340	16966.419000	1615.169922	1261.871460
19491.967340	16966.419000	1614.132813	945.856995
19491.967340	16966.419000	1613.095703	881.153015
19491.967340	16966.419000	1612.058594	1039.967041
19491.967340	16966.419000	1611.020508	638.988708
19491.967340	16966.419000	1609.983398	1163.995117
19491.967340	16966.419000	1608.945313	1154.614746
19491.967340	16966.419000	1607.907227	1043.958008
19491.967340	16966.419000	1606.868164	956.376831
19491.967340	16966.419000	1605.830078	988.509399
19491.967340	16966.419000	1604.791016	967.728516
19491.967340	16966.419000	1603.751953	1025.185547
19491.967340	16966.419000	1602.712891	951.545349
19491.967340	16966.419000	1601.673828	1190.673706
19491.967340	16966.419000	1600.633789	898.662598
19491.967340	16966.419000	1599.594727	900.999817
19491.967340	16966.419000	1598.554688	884.970459
19491.967340	16966.419000	1597.513672	763.278259
19491.967340	16966.419000	1596.473633	993.125671
19491.967340	16966.419000	1595.433594	763.555908
19491.967340	16966.419000	1594.392578	1156.395508
19491.967340	16966.419000	1593.351563	1046.317383
19491.967340	16966.419000	1592.310547	1067.142334
