#X		#Y		#Wave		#Intensity
19489.798245	16962.746500	2000.043945	-18.590078
19489.798245	16962.746500	1999.080078	-195.932541
19489.798245	16962.746500	1998.116211	21.745459
19489.798245	16962.746500	1997.151367	20.960886
19489.798245	16962.746500	1996.186523	-47.027187
19489.798245	16962.746500	1995.222656	-68.230080
19489.798245	16962.746500	1994.256836	-17.868126
19489.798245	16962.746500	1993.291992	71.802864
19489.798245	16962.746500	1992.327148	-88.894829
19489.798245	16962.746500	1991.361328	57.158634
19489.798245	16962.746500	1990.395508	136.074860
19489.798245	16962.746500	1989.429688	21.699120
19489.798245	16962.746500	1988.463867	40.718365
19489.798245	16962.746500	1987.497070	-12.235431
19489.798245	16962.746500	1986.531250	241.256866
19489.798245	16962.746500	1985.564453	49.361767
19489.798245	16962.746500	1984.597656	-110.542770
19489.798245	16962.746500	1983.630859	367.106506
19489.798245	16962.746500	1982.664063	68.394188
19489.798245	16962.746500	1981.696289	85.862289
19489.798245	16962.746500	1980.728516	157.479034
19489.798245	16962.746500	1979.761719	164.656631
19489.798245	16962.746500	1978.792969	-267.895386
19489.798245	16962.746500	1977.825195	-11.624683
19489.798245	16962.746500	1976.857422	222.162125
19489.798245	16962.746500	1975.888672	-109.481064
19489.798245	16962.746500	1974.919922	185.609711
19489.798245	16962.746500	1973.951172	63.488686
19489.798245	16962.746500	1972.982422	69.532265
19489.798245	16962.746500	1972.013672	257.931183
19489.798245	16962.746500	1971.043945	58.999771
19489.798245	16962.746500	1970.075195	-100.551422
19489.798245	16962.746500	1969.105469	129.277802
19489.798245	16962.746500	1968.135742	381.077484
19489.798245	16962.746500	1967.165039	-3.028421
19489.798245	16962.746500	1966.195313	73.559952
19489.798245	16962.746500	1965.224609	223.903885
19489.798245	16962.746500	1964.253906	211.554489
19489.798245	16962.746500	1963.283203	285.281647
19489.798245	16962.746500	1962.312500	206.259476
19489.798245	16962.746500	1961.341797	43.492027
19489.798245	16962.746500	1960.370117	254.730789
19489.798245	16962.746500	1959.399414	77.074425
19489.798245	16962.746500	1958.427734	2.718899
19489.798245	16962.746500	1957.455078	34.066116
19489.798245	16962.746500	1956.483398	281.707184
19489.798245	16962.746500	1955.511719	81.746475
19489.798245	16962.746500	1954.539063	-120.665154
19489.798245	16962.746500	1953.566406	8.701179
19489.798245	16962.746500	1952.593750	169.897583
19489.798245	16962.746500	1951.621094	291.669464
19489.798245	16962.746500	1950.647461	143.165146
19489.798245	16962.746500	1949.674805	60.964382
19489.798245	16962.746500	1948.701172	-141.561340
19489.798245	16962.746500	1947.727539	117.441727
19489.798245	16962.746500	1946.753906	420.482269
19489.798245	16962.746500	1945.780273	298.846252
19489.798245	16962.746500	1944.805664	152.685150
19489.798245	16962.746500	1943.831055	173.344849
19489.798245	16962.746500	1942.856445	267.534912
19489.798245	16962.746500	1941.881836	131.167908
19489.798245	16962.746500	1940.907227	100.238426
19489.798245	16962.746500	1939.932617	-180.721909
19489.798245	16962.746500	1938.957031	38.340157
19489.798245	16962.746500	1937.981445	191.139404
19489.798245	16962.746500	1937.005859	-55.448990
19489.798245	16962.746500	1936.030273	141.360214
19489.798245	16962.746500	1935.054688	122.580734
19489.798245	16962.746500	1934.078125	10.755667
19489.798245	16962.746500	1933.101563	-0.673857
19489.798245	16962.746500	1932.125000	193.477570
19489.798245	16962.746500	1931.148438	201.573013
19489.798245	16962.746500	1930.171875	234.123932
19489.798245	16962.746500	1929.194336	144.352783
19489.798245	16962.746500	1928.217773	47.270660
19489.798245	16962.746500	1927.240234	-220.939041
19489.798245	16962.746500	1926.262695	-105.226135
19489.798245	16962.746500	1925.284180	10.447995
19489.798245	16962.746500	1924.306641	221.385284
19489.798245	16962.746500	1923.328125	-83.303368
19489.798245	16962.746500	1922.350586	78.720963
19489.798245	16962.746500	1921.372070	23.313244
19489.798245	16962.746500	1920.392578	-17.414024
19489.798245	16962.746500	1919.414063	-63.002960
19489.798245	16962.746500	1918.434570	-242.825272
19489.798245	16962.746500	1917.456055	85.080719
19489.798245	16962.746500	1916.476563	185.938934
19489.798245	16962.746500	1915.497070	142.828308
19489.798245	16962.746500	1914.516602	233.906143
19489.798245	16962.746500	1913.537109	129.856491
19489.798245	16962.746500	1912.556641	55.120045
19489.798245	16962.746500	1911.576172	-14.695232
19489.798245	16962.746500	1910.595703	64.214119
19489.798245	16962.746500	1909.615234	1.764794
19489.798245	16962.746500	1908.633789	126.971397
19489.798245	16962.746500	1907.653320	-35.312523
19489.798245	16962.746500	1906.671875	-80.605324
19489.798245	16962.746500	1905.690430	100.610802
19489.798245	16962.746500	1904.708984	303.689880
19489.798245	16962.746500	1903.727539	49.067879
19489.798245	16962.746500	1902.745117	79.321831
19489.798245	16962.746500	1901.762695	31.717381
19489.798245	16962.746500	1900.780273	-256.708008
19489.798245	16962.746500	1899.797852	-70.676674
19489.798245	16962.746500	1898.815430	120.173019
19489.798245	16962.746500	1897.832031	55.662148
19489.798245	16962.746500	1896.849609	-373.471771
19489.798245	16962.746500	1895.866211	101.780312
19489.798245	16962.746500	1894.882813	93.269638
19489.798245	16962.746500	1893.898438	-70.717903
19489.798245	16962.746500	1892.915039	-93.724380
19489.798245	16962.746500	1891.930664	-201.705505
19489.798245	16962.746500	1890.947266	88.626572
19489.798245	16962.746500	1889.962891	2.546651
19489.798245	16962.746500	1888.977539	8.769654
19489.798245	16962.746500	1887.993164	48.987526
19489.798245	16962.746500	1887.007813	13.994658
19489.798245	16962.746500	1886.023438	-35.523006
19489.798245	16962.746500	1885.038086	196.377411
19489.798245	16962.746500	1884.051758	175.996643
19489.798245	16962.746500	1883.066406	177.467712
19489.798245	16962.746500	1882.081055	28.652601
19489.798245	16962.746500	1881.094727	32.622368
19489.798245	16962.746500	1880.108398	264.407227
19489.798245	16962.746500	1879.122070	18.813595
19489.798245	16962.746500	1878.135742	-204.865753
19489.798245	16962.746500	1877.148438	-43.335159
19489.798245	16962.746500	1876.162109	30.975447
19489.798245	16962.746500	1875.174805	197.284561
19489.798245	16962.746500	1874.187500	73.075310
19489.798245	16962.746500	1873.199219	-24.442583
19489.798245	16962.746500	1872.211914	-121.908257
19489.798245	16962.746500	1871.223633	-124.960526
19489.798245	16962.746500	1870.236328	-123.158562
19489.798245	16962.746500	1869.248047	-51.201675
19489.798245	16962.746500	1868.258789	-73.549187
19489.798245	16962.746500	1867.270508	-197.406891
19489.798245	16962.746500	1866.282227	0.263056
19489.798245	16962.746500	1865.292969	161.631363
19489.798245	16962.746500	1864.303711	-119.192238
19489.798245	16962.746500	1863.314453	-235.628098
19489.798245	16962.746500	1862.324219	-187.767227
19489.798245	16962.746500	1861.334961	94.319077
19489.798245	16962.746500	1860.344727	50.386780
19489.798245	16962.746500	1859.354492	202.008362
19489.798245	16962.746500	1858.364258	-3.595963
19489.798245	16962.746500	1857.374023	261.415100
19489.798245	16962.746500	1856.383789	43.843811
19489.798245	16962.746500	1855.392578	21.743721
19489.798245	16962.746500	1854.401367	64.777054
19489.798245	16962.746500	1853.410156	42.706947
19489.798245	16962.746500	1852.418945	179.759445
19489.798245	16962.746500	1851.426758	162.521332
19489.798245	16962.746500	1850.435547	-11.338851
19489.798245	16962.746500	1849.443359	-182.709457
19489.798245	16962.746500	1848.451172	33.817707
19489.798245	16962.746500	1847.458984	-171.197372
19489.798245	16962.746500	1846.466797	93.424431
19489.798245	16962.746500	1845.473633	64.240639
19489.798245	16962.746500	1844.480469	-94.905060
19489.798245	16962.746500	1843.487305	181.609802
19489.798245	16962.746500	1842.494141	-73.732910
19489.798245	16962.746500	1841.500977	236.365021
19489.798245	16962.746500	1840.506836	-177.622833
19489.798245	16962.746500	1839.513672	-72.020340
19489.798245	16962.746500	1838.519531	79.231522
19489.798245	16962.746500	1837.525391	-219.097839
19489.798245	16962.746500	1836.530273	-2.974313
19489.798245	16962.746500	1835.536133	11.217669
19489.798245	16962.746500	1834.541016	123.910179
19489.798245	16962.746500	1833.545898	142.880417
19489.798245	16962.746500	1832.550781	48.967663
19489.798245	16962.746500	1831.555664	12.718173
19489.798245	16962.746500	1830.560547	67.707535
19489.798245	16962.746500	1829.564453	43.469837
19489.798245	16962.746500	1828.568359	199.223709
19489.798245	16962.746500	1827.572266	124.577934
19489.798245	16962.746500	1826.576172	145.914734
19489.798245	16962.746500	1825.580078	88.087036
19489.798245	16962.746500	1824.583008	-36.861313
19489.798245	16962.746500	1823.585938	-61.072998
19489.798245	16962.746500	1822.588867	-70.898209
19489.798245	16962.746500	1821.591797	367.445679
19489.798245	16962.746500	1820.594727	137.081146
19489.798245	16962.746500	1819.596680	72.102783
19489.798245	16962.746500	1818.599609	215.528641
19489.798245	16962.746500	1817.601563	169.702805
19489.798245	16962.746500	1816.603516	-41.327888
19489.798245	16962.746500	1815.604492	-125.406364
19489.798245	16962.746500	1814.606445	285.981628
19489.798245	16962.746500	1813.607422	197.064835
19489.798245	16962.746500	1812.608398	258.901886
19489.798245	16962.746500	1811.609375	107.804741
19489.798245	16962.746500	1810.610352	157.651764
19489.798245	16962.746500	1809.610352	104.648827
19489.798245	16962.746500	1808.611328	37.302509
19489.798245	16962.746500	1807.611328	65.583664
19489.798245	16962.746500	1806.611328	206.162323
19489.798245	16962.746500	1805.610352	227.207230
19489.798245	16962.746500	1804.610352	85.771942
19489.798245	16962.746500	1803.609375	214.282333
19489.798245	16962.746500	1802.608398	-187.425491
19489.798245	16962.746500	1801.607422	146.386276
19489.798245	16962.746500	1800.606445	401.277710
19489.798245	16962.746500	1799.605469	-0.290765
19489.798245	16962.746500	1798.603516	192.455002
19489.798245	16962.746500	1797.601563	199.015305
19489.798245	16962.746500	1796.599609	126.836967
19489.798245	16962.746500	1795.597656	121.442963
19489.798245	16962.746500	1794.595703	120.797707
19489.798245	16962.746500	1793.592773	434.823669
19489.798245	16962.746500	1792.589844	86.081848
19489.798245	16962.746500	1791.587891	225.982941
19489.798245	16962.746500	1790.583984	20.330301
19489.798245	16962.746500	1789.581055	33.890064
19489.798245	16962.746500	1788.577148	102.204781
19489.798245	16962.746500	1787.574219	-24.798138
19489.798245	16962.746500	1786.570313	-39.875046
19489.798245	16962.746500	1785.566406	256.859467
19489.798245	16962.746500	1784.561523	51.294559
19489.798245	16962.746500	1783.557617	404.955505
19489.798245	16962.746500	1782.552734	306.445160
19489.798245	16962.746500	1781.547852	50.957695
19489.798245	16962.746500	1780.542969	254.522034
19489.798245	16962.746500	1779.538086	215.458191
19489.798245	16962.746500	1778.532227	135.971588
19489.798245	16962.746500	1777.527344	180.076187
19489.798245	16962.746500	1776.521484	302.558136
19489.798245	16962.746500	1775.515625	420.215363
19489.798245	16962.746500	1774.508789	62.716042
19489.798245	16962.746500	1773.502930	4.568553
19489.798245	16962.746500	1772.496094	-29.839548
19489.798245	16962.746500	1771.489258	213.504578
19489.798245	16962.746500	1770.482422	119.671013
19489.798245	16962.746500	1769.475586	18.723959
19489.798245	16962.746500	1768.467773	368.603058
19489.798245	16962.746500	1767.460938	153.719345
19489.798245	16962.746500	1766.453125	259.083160
19489.798245	16962.746500	1765.445313	172.295486
19489.798245	16962.746500	1764.437500	185.088516
19489.798245	16962.746500	1763.428711	181.253372
19489.798245	16962.746500	1762.420898	281.668213
19489.798245	16962.746500	1761.412109	315.665436
19489.798245	16962.746500	1760.403320	238.271912
19489.798245	16962.746500	1759.393555	80.343140
19489.798245	16962.746500	1758.384766	38.482189
19489.798245	16962.746500	1757.375000	32.122765
19489.798245	16962.746500	1756.366211	241.157150
19489.798245	16962.746500	1755.356445	80.852928
19489.798245	16962.746500	1754.345703	169.049759
19489.798245	16962.746500	1753.335938	63.171371
19489.798245	16962.746500	1752.325195	87.405121
19489.798245	16962.746500	1751.315430	312.624115
19489.798245	16962.746500	1750.304688	142.835938
19489.798245	16962.746500	1749.292969	8.544292
19489.798245	16962.746500	1748.282227	70.456528
19489.798245	16962.746500	1747.270508	-9.482481
19489.798245	16962.746500	1746.259766	0.362463
19489.798245	16962.746500	1745.248047	71.592392
19489.798245	16962.746500	1744.235352	197.086105
19489.798245	16962.746500	1743.223633	-43.526848
19489.798245	16962.746500	1742.211914	93.677071
19489.798245	16962.746500	1741.199219	-97.318176
19489.798245	16962.746500	1740.186523	-19.223129
19489.798245	16962.746500	1739.173828	-14.340486
19489.798245	16962.746500	1738.160156	75.440605
19489.798245	16962.746500	1737.147461	-32.984253
19489.798245	16962.746500	1736.133789	47.266739
19489.798245	16962.746500	1735.120117	-25.807775
19489.798245	16962.746500	1734.106445	23.696587
19489.798245	16962.746500	1733.091797	-39.982487
19489.798245	16962.746500	1732.078125	101.343941
19489.798245	16962.746500	1731.063477	115.358170
19489.798245	16962.746500	1730.048828	223.557114
19489.798245	16962.746500	1729.034180	72.616653
19489.798245	16962.746500	1728.019531	-148.941574
19489.798245	16962.746500	1727.003906	22.713739
19489.798245	16962.746500	1725.988281	114.243706
19489.798245	16962.746500	1724.972656	-29.630814
19489.798245	16962.746500	1723.957031	-67.601051
19489.798245	16962.746500	1722.941406	136.714035
19489.798245	16962.746500	1721.924805	-103.608276
19489.798245	16962.746500	1720.909180	-327.411469
19489.798245	16962.746500	1719.892578	269.374847
19489.798245	16962.746500	1718.875977	-83.759819
19489.798245	16962.746500	1717.858398	-20.804651
19489.798245	16962.746500	1716.841797	-44.847034
19489.798245	16962.746500	1715.824219	60.302380
19489.798245	16962.746500	1714.806641	-114.132378
19489.798245	16962.746500	1713.789063	-110.051445
19489.798245	16962.746500	1712.770508	-106.002716
19489.798245	16962.746500	1711.752930	-101.985344
19489.798245	16962.746500	1710.734375	-154.327820
19489.798245	16962.746500	1709.715820	-98.735603
19489.798245	16962.746500	1708.697266	-291.886139
19489.798245	16962.746500	1707.678711	-248.076019
19489.798245	16962.746500	1706.659180	-21.378620
19489.798245	16962.746500	1705.640625	-71.486115
19489.798245	16962.746500	1704.621094	122.212212
19489.798245	16962.746500	1703.600586	-47.494331
19489.798245	16962.746500	1702.581055	-39.063347
19489.798245	16962.746500	1701.561523	-44.718643
19489.798245	16962.746500	1700.541016	-197.980988
19489.798245	16962.746500	1699.520508	75.053864
19489.798245	16962.746500	1698.500000	-57.148891
19489.798245	16962.746500	1697.478516	-147.184296
19489.798245	16962.746500	1696.458008	76.451332
19489.798245	16962.746500	1695.436523	37.860493
19489.798245	16962.746500	1694.415039	312.803040
19489.798245	16962.746500	1693.393555	56.568451
19489.798245	16962.746500	1692.372070	389.827026
19489.798245	16962.746500	1691.349609	325.387939
19489.798245	16962.746500	1690.327148	375.515106
19489.798245	16962.746500	1689.304688	191.839737
19489.798245	16962.746500	1688.282227	19.899406
19489.798245	16962.746500	1687.259766	27.928917
19489.798245	16962.746500	1686.236328	215.827209
19489.798245	16962.746500	1685.213867	156.035980
19489.798245	16962.746500	1684.190430	82.235481
19489.798245	16962.746500	1683.166016	-138.655914
19489.798245	16962.746500	1682.142578	259.149292
19489.798245	16962.746500	1681.119141	117.628204
19489.798245	16962.746500	1680.094727	48.480442
19489.798245	16962.746500	1679.070313	100.665482
19489.798245	16962.746500	1678.045898	246.117386
19489.798245	16962.746500	1677.020508	228.240875
19489.798245	16962.746500	1675.996094	410.888123
19489.798245	16962.746500	1674.970703	327.676666
19489.798245	16962.746500	1673.945313	302.753571
19489.798245	16962.746500	1672.919922	753.230652
19489.798245	16962.746500	1671.893555	425.309418
19489.798245	16962.746500	1670.868164	418.975098
19489.798245	16962.746500	1669.841797	307.819672
19489.798245	16962.746500	1668.815430	264.224670
19489.798245	16962.746500	1667.789063	236.930862
19489.798245	16962.746500	1666.761719	335.331146
19489.798245	16962.746500	1665.735352	335.938171
19489.798245	16962.746500	1664.708008	504.062592
19489.798245	16962.746500	1663.680664	134.722794
19489.798245	16962.746500	1662.653320	198.134094
19489.798245	16962.746500	1661.625000	91.751923
19489.798245	16962.746500	1660.597656	273.706207
19489.798245	16962.746500	1659.569336	160.360291
19489.798245	16962.746500	1658.541016	270.166138
19489.798245	16962.746500	1657.512695	377.598938
19489.798245	16962.746500	1656.483398	491.951965
19489.798245	16962.746500	1655.455078	473.855225
19489.798245	16962.746500	1654.425781	286.232544
19489.798245	16962.746500	1653.396484	-17.417154
19489.798245	16962.746500	1652.366211	368.507996
19489.798245	16962.746500	1651.336914	410.776672
19489.798245	16962.746500	1650.306641	395.011993
19489.798245	16962.746500	1649.276367	569.497986
19489.798245	16962.746500	1648.246094	407.567352
19489.798245	16962.746500	1647.215820	382.529175
19489.798245	16962.746500	1646.185547	510.536438
19489.798245	16962.746500	1645.154297	485.485931
19489.798245	16962.746500	1644.123047	504.484039
19489.798245	16962.746500	1643.091797	407.607452
19489.798245	16962.746500	1642.060547	614.288513
19489.798245	16962.746500	1641.028320	498.898560
19489.798245	16962.746500	1639.997070	684.641907
19489.798245	16962.746500	1638.964844	687.383911
19489.798245	16962.746500	1637.931641	604.468811
19489.798245	16962.746500	1636.899414	716.024780
19489.798245	16962.746500	1635.867188	549.831482
19489.798245	16962.746500	1634.833984	420.731018
19489.798245	16962.746500	1633.800781	636.374695
19489.798245	16962.746500	1632.767578	673.847107
19489.798245	16962.746500	1631.734375	466.195679
19489.798245	16962.746500	1630.700195	596.182617
19489.798245	16962.746500	1629.666016	469.546997
19489.798245	16962.746500	1628.631836	733.545349
19489.798245	16962.746500	1627.597656	567.670410
19489.798245	16962.746500	1626.563477	896.252869
19489.798245	16962.746500	1625.528320	905.972961
19489.798245	16962.746500	1624.493164	603.944702
19489.798245	16962.746500	1623.458008	692.244873
19489.798245	16962.746500	1622.422852	842.848694
19489.798245	16962.746500	1621.387695	942.633850
19489.798245	16962.746500	1620.351563	853.178833
19489.798245	16962.746500	1619.315430	1026.777466
19489.798245	16962.746500	1618.279297	785.135315
19489.798245	16962.746500	1617.243164	723.481689
19489.798245	16962.746500	1616.207031	788.686218
19489.798245	16962.746500	1615.169922	685.597168
19489.798245	16962.746500	1614.132813	568.736755
19489.798245	16962.746500	1613.095703	693.900452
19489.798245	16962.746500	1612.058594	733.790039
19489.798245	16962.746500	1611.020508	672.330078
19489.798245	16962.746500	1609.983398	889.581543
19489.798245	16962.746500	1608.945313	839.670288
19489.798245	16962.746500	1607.907227	580.307678
19489.798245	16962.746500	1606.868164	659.414490
19489.798245	16962.746500	1605.830078	455.463623
19489.798245	16962.746500	1604.791016	718.672913
19489.798245	16962.746500	1603.751953	671.261475
19489.798245	16962.746500	1602.712891	789.481873
19489.798245	16962.746500	1601.673828	976.666687
19489.798245	16962.746500	1600.633789	770.680237
19489.798245	16962.746500	1599.594727	718.799805
19489.798245	16962.746500	1598.554688	970.315613
19489.798245	16962.746500	1597.513672	973.617126
19489.798245	16962.746500	1596.473633	1038.971680
19489.798245	16962.746500	1595.433594	578.372437
19489.798245	16962.746500	1594.392578	992.873169
19489.798245	16962.746500	1593.351563	695.530762
19489.798245	16962.746500	1592.310547	641.648438
19489.798245	16962.746500	1591.268555	574.047668
