#X		#Y		#Wave		#Intensity
19512.557713	16884.099833	2000.043945	-40.241913
19512.557713	16884.099833	1999.080078	520.181702
19512.557713	16884.099833	1998.116211	126.893173
19512.557713	16884.099833	1997.151367	-388.221771
19512.557713	16884.099833	1996.186523	456.561920
19512.557713	16884.099833	1995.222656	79.182358
19512.557713	16884.099833	1994.256836	-164.784286
19512.557713	16884.099833	1993.291992	695.231750
19512.557713	16884.099833	1992.327148	21.871901
19512.557713	16884.099833	1991.361328	358.251892
19512.557713	16884.099833	1990.395508	399.509186
19512.557713	16884.099833	1989.429688	88.905449
19512.557713	16884.099833	1988.463867	-88.450272
19512.557713	16884.099833	1987.497070	-120.222160
19512.557713	16884.099833	1986.531250	33.041168
19512.557713	16884.099833	1985.564453	-63.895252
19512.557713	16884.099833	1984.597656	281.307129
19512.557713	16884.099833	1983.630859	435.651093
19512.557713	16884.099833	1982.664063	416.553284
19512.557713	16884.099833	1981.696289	122.834282
19512.557713	16884.099833	1980.728516	490.903992
19512.557713	16884.099833	1979.761719	487.966675
19512.557713	16884.099833	1978.792969	625.468567
19512.557713	16884.099833	1977.825195	88.521942
19512.557713	16884.099833	1976.857422	672.140991
19512.557713	16884.099833	1975.888672	480.260406
19512.557713	16884.099833	1974.919922	534.892944
19512.557713	16884.099833	1973.951172	298.067139
19512.557713	16884.099833	1972.982422	16.623816
19512.557713	16884.099833	1972.013672	186.309937
19512.557713	16884.099833	1971.043945	592.378174
19512.557713	16884.099833	1970.075195	610.942017
19512.557713	16884.099833	1969.105469	858.478210
19512.557713	16884.099833	1968.135742	445.199860
19512.557713	16884.099833	1967.165039	566.510315
19512.557713	16884.099833	1966.195313	677.661499
19512.557713	16884.099833	1965.224609	889.525818
19512.557713	16884.099833	1964.253906	601.180237
19512.557713	16884.099833	1963.283203	320.100800
19512.557713	16884.099833	1962.312500	523.849487
19512.557713	16884.099833	1961.341797	542.722473
19512.557713	16884.099833	1960.370117	349.776764
19512.557713	16884.099833	1959.399414	609.379700
19512.557713	16884.099833	1958.427734	310.325531
19512.557713	16884.099833	1957.455078	731.807617
19512.557713	16884.099833	1956.483398	223.475510
19512.557713	16884.099833	1955.511719	184.717178
19512.557713	16884.099833	1954.539063	364.587738
19512.557713	16884.099833	1953.566406	475.415070
19512.557713	16884.099833	1952.593750	286.279297
19512.557713	16884.099833	1951.621094	502.412781
19512.557713	16884.099833	1950.647461	514.467224
19512.557713	16884.099833	1949.674805	396.218506
19512.557713	16884.099833	1948.701172	567.608521
19512.557713	16884.099833	1947.727539	98.105865
19512.557713	16884.099833	1946.753906	634.934570
19512.557713	16884.099833	1945.780273	-1.509620
19512.557713	16884.099833	1944.805664	-183.935928
19512.557713	16884.099833	1943.831055	163.436935
19512.557713	16884.099833	1942.856445	74.031693
19512.557713	16884.099833	1941.881836	452.903778
19512.557713	16884.099833	1940.907227	-252.067276
19512.557713	16884.099833	1939.932617	447.638580
19512.557713	16884.099833	1938.957031	154.478882
19512.557713	16884.099833	1937.981445	187.231003
19512.557713	16884.099833	1937.005859	-179.421249
19512.557713	16884.099833	1936.030273	360.233154
19512.557713	16884.099833	1935.054688	22.928558
19512.557713	16884.099833	1934.078125	381.035736
19512.557713	16884.099833	1933.101563	604.312378
19512.557713	16884.099833	1932.125000	528.855896
19512.557713	16884.099833	1931.148438	252.712708
19512.557713	16884.099833	1930.171875	490.397980
19512.557713	16884.099833	1929.194336	123.769951
19512.557713	16884.099833	1928.217773	214.555527
19512.557713	16884.099833	1927.240234	92.545769
19512.557713	16884.099833	1926.262695	513.275513
19512.557713	16884.099833	1925.284180	303.196259
19512.557713	16884.099833	1924.306641	415.734039
19512.557713	16884.099833	1923.328125	388.937134
19512.557713	16884.099833	1922.350586	132.477646
19512.557713	16884.099833	1921.372070	73.934792
19512.557713	16884.099833	1920.392578	262.049255
19512.557713	16884.099833	1919.414063	137.536087
19512.557713	16884.099833	1918.434570	244.970154
19512.557713	16884.099833	1917.456055	235.183594
19512.557713	16884.099833	1916.476563	252.239304
19512.557713	16884.099833	1915.497070	113.136391
19512.557713	16884.099833	1914.516602	-89.338898
19512.557713	16884.099833	1913.537109	144.793823
19512.557713	16884.099833	1912.556641	532.460327
19512.557713	16884.099833	1911.576172	327.561798
19512.557713	16884.099833	1910.595703	203.174225
19512.557713	16884.099833	1909.615234	-23.524982
19512.557713	16884.099833	1908.633789	61.753864
19512.557713	16884.099833	1907.653320	8.131415
19512.557713	16884.099833	1906.671875	59.279060
19512.557713	16884.099833	1905.690430	171.289001
19512.557713	16884.099833	1904.708984	-42.989803
19512.557713	16884.099833	1903.727539	-356.985779
19512.557713	16884.099833	1902.745117	73.902885
19512.557713	16884.099833	1901.762695	-242.407684
19512.557713	16884.099833	1900.780273	-152.287521
19512.557713	16884.099833	1899.797852	-320.032501
19512.557713	16884.099833	1898.815430	-101.012756
19512.557713	16884.099833	1897.832031	149.560715
19512.557713	16884.099833	1896.849609	49.963993
19512.557713	16884.099833	1895.866211	-39.846920
19512.557713	16884.099833	1894.882813	8.910826
19512.557713	16884.099833	1893.898438	-284.911407
19512.557713	16884.099833	1892.915039	-129.205856
19512.557713	16884.099833	1891.930664	259.639618
19512.557713	16884.099833	1890.947266	-0.025194
19512.557713	16884.099833	1889.962891	255.150085
19512.557713	16884.099833	1888.977539	-21.353655
19512.557713	16884.099833	1887.993164	-96.304070
19512.557713	16884.099833	1887.007813	-28.026604
19512.557713	16884.099833	1886.023438	-49.535191
19512.557713	16884.099833	1885.038086	334.079071
19512.557713	16884.099833	1884.051758	-51.207035
19512.557713	16884.099833	1883.066406	167.424301
19512.557713	16884.099833	1882.081055	-280.687683
19512.557713	16884.099833	1881.094727	379.089172
19512.557713	16884.099833	1880.108398	-216.666382
19512.557713	16884.099833	1879.122070	-208.872406
19512.557713	16884.099833	1878.135742	-566.857117
19512.557713	16884.099833	1877.148438	-110.875214
19512.557713	16884.099833	1876.162109	-192.644485
19512.557713	16884.099833	1875.174805	-230.775635
19512.557713	16884.099833	1874.187500	108.751114
19512.557713	16884.099833	1873.199219	116.614662
19512.557713	16884.099833	1872.211914	66.405449
19512.557713	16884.099833	1871.223633	-126.491135
19512.557713	16884.099833	1870.236328	89.472260
19512.557713	16884.099833	1869.248047	58.708355
19512.557713	16884.099833	1868.258789	-59.060638
19512.557713	16884.099833	1867.270508	62.552273
19512.557713	16884.099833	1866.282227	-151.836700
19512.557713	16884.099833	1865.292969	334.689453
19512.557713	16884.099833	1864.303711	91.380524
19512.557713	16884.099833	1863.314453	53.505360
19512.557713	16884.099833	1862.324219	-56.784698
19512.557713	16884.099833	1861.334961	103.420464
19512.557713	16884.099833	1860.344727	-170.986008
19512.557713	16884.099833	1859.354492	-61.481102
19512.557713	16884.099833	1858.364258	-50.952343
19512.557713	16884.099833	1857.374023	169.509628
19512.557713	16884.099833	1856.383789	-333.853851
19512.557713	16884.099833	1855.392578	-238.821259
19512.557713	16884.099833	1854.401367	-98.002571
19512.557713	16884.099833	1853.410156	-19.914309
19512.557713	16884.099833	1852.418945	275.106659
19512.557713	16884.099833	1851.426758	-37.343231
19512.557713	16884.099833	1850.435547	-2.678483
19512.557713	16884.099833	1849.443359	458.439240
19512.557713	16884.099833	1848.451172	78.688889
19512.557713	16884.099833	1847.458984	-45.629799
19512.557713	16884.099833	1846.466797	82.935272
19512.557713	16884.099833	1845.473633	81.456985
19512.557713	16884.099833	1844.480469	236.434525
19512.557713	16884.099833	1843.487305	141.062134
19512.557713	16884.099833	1842.494141	55.342579
19512.557713	16884.099833	1841.500977	87.528671
19512.557713	16884.099833	1840.506836	37.927559
19512.557713	16884.099833	1839.513672	267.284790
19512.557713	16884.099833	1838.519531	-5.952179
19512.557713	16884.099833	1837.525391	47.829048
19512.557713	16884.099833	1836.530273	243.392563
19512.557713	16884.099833	1835.536133	176.933197
19512.557713	16884.099833	1834.541016	105.687286
19512.557713	16884.099833	1833.545898	94.509453
19512.557713	16884.099833	1832.550781	-34.367149
19512.557713	16884.099833	1831.555664	-95.974991
19512.557713	16884.099833	1830.560547	348.965942
19512.557713	16884.099833	1829.564453	20.848433
19512.557713	16884.099833	1828.568359	410.374817
19512.557713	16884.099833	1827.572266	-32.846767
19512.557713	16884.099833	1826.576172	219.756607
19512.557713	16884.099833	1825.580078	210.804794
19512.557713	16884.099833	1824.583008	84.342773
19512.557713	16884.099833	1823.585938	96.955765
19512.557713	16884.099833	1822.588867	143.091721
19512.557713	16884.099833	1821.591797	148.436859
19512.557713	16884.099833	1820.594727	285.536774
19512.557713	16884.099833	1819.596680	44.033924
19512.557713	16884.099833	1818.599609	-58.493294
19512.557713	16884.099833	1817.601563	334.721741
19512.557713	16884.099833	1816.603516	-62.399586
19512.557713	16884.099833	1815.604492	364.117065
19512.557713	16884.099833	1814.606445	-226.809799
19512.557713	16884.099833	1813.607422	-121.171646
19512.557713	16884.099833	1812.608398	180.574142
19512.557713	16884.099833	1811.609375	168.793488
19512.557713	16884.099833	1810.610352	-570.100830
19512.557713	16884.099833	1809.610352	87.724602
19512.557713	16884.099833	1808.611328	83.001419
19512.557713	16884.099833	1807.611328	197.753204
19512.557713	16884.099833	1806.611328	259.831451
19512.557713	16884.099833	1805.610352	178.483505
19512.557713	16884.099833	1804.610352	400.499939
19512.557713	16884.099833	1803.609375	302.325836
19512.557713	16884.099833	1802.608398	-10.792500
19512.557713	16884.099833	1801.607422	12.803810
19512.557713	16884.099833	1800.606445	41.105740
19512.557713	16884.099833	1799.605469	62.174561
19512.557713	16884.099833	1798.603516	138.069748
19512.557713	16884.099833	1797.601563	447.682404
19512.557713	16884.099833	1796.599609	322.983978
19512.557713	16884.099833	1795.597656	-180.936829
19512.557713	16884.099833	1794.595703	32.989067
19512.557713	16884.099833	1793.592773	5.988825
19512.557713	16884.099833	1792.589844	145.782059
19512.557713	16884.099833	1791.587891	776.358154
19512.557713	16884.099833	1790.583984	84.275551
19512.557713	16884.099833	1789.581055	-45.424896
19512.557713	16884.099833	1788.577148	103.520447
19512.557713	16884.099833	1787.574219	-85.818199
19512.557713	16884.099833	1786.570313	-39.450912
19512.557713	16884.099833	1785.566406	-183.606750
19512.557713	16884.099833	1784.561523	126.792435
19512.557713	16884.099833	1783.557617	420.325348
19512.557713	16884.099833	1782.552734	254.524277
19512.557713	16884.099833	1781.547852	174.336334
19512.557713	16884.099833	1780.542969	84.580788
19512.557713	16884.099833	1779.538086	75.616013
19512.557713	16884.099833	1778.532227	194.949432
19512.557713	16884.099833	1777.527344	214.317032
19512.557713	16884.099833	1776.521484	195.582260
19512.557713	16884.099833	1775.515625	157.755280
19512.557713	16884.099833	1774.508789	169.749481
19512.557713	16884.099833	1773.502930	-231.608582
19512.557713	16884.099833	1772.496094	27.223631
19512.557713	16884.099833	1771.489258	-115.352722
19512.557713	16884.099833	1770.482422	-267.463531
19512.557713	16884.099833	1769.475586	-234.500259
19512.557713	16884.099833	1768.467773	175.625809
19512.557713	16884.099833	1767.460938	201.183823
19512.557713	16884.099833	1766.453125	112.793411
19512.557713	16884.099833	1765.445313	145.282196
19512.557713	16884.099833	1764.437500	156.321259
19512.557713	16884.099833	1763.428711	217.045807
19512.557713	16884.099833	1762.420898	336.890076
19512.557713	16884.099833	1761.412109	60.879120
19512.557713	16884.099833	1760.403320	168.665283
19512.557713	16884.099833	1759.393555	219.469421
19512.557713	16884.099833	1758.384766	-369.273407
19512.557713	16884.099833	1757.375000	119.441605
19512.557713	16884.099833	1756.366211	96.522636
19512.557713	16884.099833	1755.356445	101.915497
19512.557713	16884.099833	1754.345703	-105.771332
19512.557713	16884.099833	1753.335938	24.839741
19512.557713	16884.099833	1752.325195	46.490856
19512.557713	16884.099833	1751.315430	-123.553215
19512.557713	16884.099833	1750.304688	432.300842
19512.557713	16884.099833	1749.292969	124.923332
19512.557713	16884.099833	1748.282227	120.099205
19512.557713	16884.099833	1747.270508	-36.074863
19512.557713	16884.099833	1746.259766	60.518597
19512.557713	16884.099833	1745.248047	206.573517
19512.557713	16884.099833	1744.235352	-212.024109
19512.557713	16884.099833	1743.223633	-99.253754
19512.557713	16884.099833	1742.211914	70.026138
19512.557713	16884.099833	1741.199219	-67.742485
19512.557713	16884.099833	1740.186523	-99.361824
19512.557713	16884.099833	1739.173828	29.370920
19512.557713	16884.099833	1738.160156	-295.020538
19512.557713	16884.099833	1737.147461	17.454500
19512.557713	16884.099833	1736.133789	60.851471
19512.557713	16884.099833	1735.120117	-86.865562
19512.557713	16884.099833	1734.106445	-112.056183
19512.557713	16884.099833	1733.091797	-325.908051
19512.557713	16884.099833	1732.078125	-216.956665
19512.557713	16884.099833	1731.063477	12.000907
19512.557713	16884.099833	1730.048828	-178.543289
19512.557713	16884.099833	1729.034180	-284.347168
19512.557713	16884.099833	1728.019531	-81.758499
19512.557713	16884.099833	1727.003906	-216.020142
19512.557713	16884.099833	1725.988281	85.102638
19512.557713	16884.099833	1724.972656	-2.304218
19512.557713	16884.099833	1723.957031	441.954590
19512.557713	16884.099833	1722.941406	166.082214
19512.557713	16884.099833	1721.924805	-192.121735
19512.557713	16884.099833	1720.909180	-190.522064
19512.557713	16884.099833	1719.892578	104.851433
19512.557713	16884.099833	1718.875977	-135.953064
19512.557713	16884.099833	1717.858398	-101.812050
19512.557713	16884.099833	1716.841797	-91.296432
19512.557713	16884.099833	1715.824219	118.789772
19512.557713	16884.099833	1714.806641	-84.719551
19512.557713	16884.099833	1713.789063	263.605469
19512.557713	16884.099833	1712.770508	24.696499
19512.557713	16884.099833	1711.752930	119.104927
19512.557713	16884.099833	1710.734375	11.514021
19512.557713	16884.099833	1709.715820	183.094254
19512.557713	16884.099833	1708.697266	63.572495
19512.557713	16884.099833	1707.678711	-46.636848
19512.557713	16884.099833	1706.659180	-173.337067
19512.557713	16884.099833	1705.640625	-105.487007
19512.557713	16884.099833	1704.621094	105.232124
19512.557713	16884.099833	1703.600586	-319.445221
19512.557713	16884.099833	1702.581055	57.390026
19512.557713	16884.099833	1701.561523	180.918823
19512.557713	16884.099833	1700.541016	-96.287628
19512.557713	16884.099833	1699.520508	460.290100
19512.557713	16884.099833	1698.500000	304.675934
19512.557713	16884.099833	1697.478516	764.745544
19512.557713	16884.099833	1696.458008	168.850784
19512.557713	16884.099833	1695.436523	321.968811
19512.557713	16884.099833	1694.415039	273.690033
19512.557713	16884.099833	1693.393555	431.186920
19512.557713	16884.099833	1692.372070	600.206238
19512.557713	16884.099833	1691.349609	83.873085
19512.557713	16884.099833	1690.327148	329.833008
19512.557713	16884.099833	1689.304688	512.477356
19512.557713	16884.099833	1688.282227	489.271698
19512.557713	16884.099833	1687.259766	779.091736
19512.557713	16884.099833	1686.236328	561.722351
19512.557713	16884.099833	1685.213867	860.545227
19512.557713	16884.099833	1684.190430	409.500427
19512.557713	16884.099833	1683.166016	163.994675
19512.557713	16884.099833	1682.142578	903.621216
19512.557713	16884.099833	1681.119141	769.946106
19512.557713	16884.099833	1680.094727	661.886536
19512.557713	16884.099833	1679.070313	1120.714355
19512.557713	16884.099833	1678.045898	1234.028198
19512.557713	16884.099833	1677.020508	705.842651
19512.557713	16884.099833	1675.996094	849.314697
19512.557713	16884.099833	1674.970703	759.496155
19512.557713	16884.099833	1673.945313	874.733582
19512.557713	16884.099833	1672.919922	1108.684326
19512.557713	16884.099833	1671.893555	1020.909546
19512.557713	16884.099833	1670.868164	1042.567139
19512.557713	16884.099833	1669.841797	894.098755
19512.557713	16884.099833	1668.815430	948.187500
19512.557713	16884.099833	1667.789063	678.549255
19512.557713	16884.099833	1666.761719	1286.471436
19512.557713	16884.099833	1665.735352	1026.003662
19512.557713	16884.099833	1664.708008	1091.301514
19512.557713	16884.099833	1663.680664	1114.611084
19512.557713	16884.099833	1662.653320	1356.464966
19512.557713	16884.099833	1661.625000	651.669556
19512.557713	16884.099833	1660.597656	1035.177734
19512.557713	16884.099833	1659.569336	1232.488159
19512.557713	16884.099833	1658.541016	1350.620972
19512.557713	16884.099833	1657.512695	1192.112427
19512.557713	16884.099833	1656.483398	1100.956421
19512.557713	16884.099833	1655.455078	1293.141724
19512.557713	16884.099833	1654.425781	1378.342041
19512.557713	16884.099833	1653.396484	1670.085938
19512.557713	16884.099833	1652.366211	1499.675415
19512.557713	16884.099833	1651.336914	1319.978638
19512.557713	16884.099833	1650.306641	1597.422974
19512.557713	16884.099833	1649.276367	1206.505859
19512.557713	16884.099833	1648.246094	1757.443481
19512.557713	16884.099833	1647.215820	1317.807495
19512.557713	16884.099833	1646.185547	1719.978149
19512.557713	16884.099833	1645.154297	1892.417725
19512.557713	16884.099833	1644.123047	2301.143311
19512.557713	16884.099833	1643.091797	2053.828125
19512.557713	16884.099833	1642.060547	1864.477539
19512.557713	16884.099833	1641.028320	1851.186523
19512.557713	16884.099833	1639.997070	1962.914307
19512.557713	16884.099833	1638.964844	2162.532715
19512.557713	16884.099833	1637.931641	1892.042725
19512.557713	16884.099833	1636.899414	2153.986328
19512.557713	16884.099833	1635.867188	2367.180908
19512.557713	16884.099833	1634.833984	2286.385010
19512.557713	16884.099833	1633.800781	2478.550049
19512.557713	16884.099833	1632.767578	2543.380615
19512.557713	16884.099833	1631.734375	2580.394287
19512.557713	16884.099833	1630.700195	2191.935059
19512.557713	16884.099833	1629.666016	2166.501709
19512.557713	16884.099833	1628.631836	2751.166260
19512.557713	16884.099833	1627.597656	2492.176025
19512.557713	16884.099833	1626.563477	2436.548340
19512.557713	16884.099833	1625.528320	2431.717773
19512.557713	16884.099833	1624.493164	2590.815430
19512.557713	16884.099833	1623.458008	2595.124268
19512.557713	16884.099833	1622.422852	2705.587646
19512.557713	16884.099833	1621.387695	2439.781250
19512.557713	16884.099833	1620.351563	2580.170410
19512.557713	16884.099833	1619.315430	2457.472656
19512.557713	16884.099833	1618.279297	2475.498535
19512.557713	16884.099833	1617.243164	2451.988037
19512.557713	16884.099833	1616.207031	2511.469971
19512.557713	16884.099833	1615.169922	2550.159912
19512.557713	16884.099833	1614.132813	2819.298828
19512.557713	16884.099833	1613.095703	2786.443359
19512.557713	16884.099833	1612.058594	2795.059814
19512.557713	16884.099833	1611.020508	2856.633301
19512.557713	16884.099833	1609.983398	2466.785400
19512.557713	16884.099833	1608.945313	2919.819580
19512.557713	16884.099833	1607.907227	2882.313232
19512.557713	16884.099833	1606.868164	2771.161621
19512.557713	16884.099833	1605.830078	2296.462646
19512.557713	16884.099833	1604.791016	3264.527832
19512.557713	16884.099833	1603.751953	2769.204346
19512.557713	16884.099833	1602.712891	2690.357178
19512.557713	16884.099833	1601.673828	2365.503662
19512.557713	16884.099833	1600.633789	2268.378662
19512.557713	16884.099833	1599.594727	2513.783447
19512.557713	16884.099833	1598.554688	2453.451660
19512.557713	16884.099833	1597.513672	2441.400635
19512.557713	16884.099833	1596.473633	2362.756104
19512.557713	16884.099833	1595.433594	2373.725342
19512.557713	16884.099833	1594.392578	2538.559082
