#X		#Y		#Wave		#Intensity
19446.111170	16904.393000	2000.043945	312.324219
19446.111170	16904.393000	1999.080078	-323.185760
19446.111170	16904.393000	1998.116211	165.472473
19446.111170	16904.393000	1997.151367	433.214447
19446.111170	16904.393000	1996.186523	294.325195
19446.111170	16904.393000	1995.222656	63.629528
19446.111170	16904.393000	1994.256836	-466.820465
19446.111170	16904.393000	1993.291992	-219.700516
19446.111170	16904.393000	1992.327148	81.622963
19446.111170	16904.393000	1991.361328	187.126511
19446.111170	16904.393000	1990.395508	-274.333801
19446.111170	16904.393000	1989.429688	157.504105
19446.111170	16904.393000	1988.463867	-346.152405
19446.111170	16904.393000	1987.497070	-125.003517
19446.111170	16904.393000	1986.531250	-114.312492
19446.111170	16904.393000	1985.564453	-153.206711
19446.111170	16904.393000	1984.597656	-24.118551
19446.111170	16904.393000	1983.630859	201.182404
19446.111170	16904.393000	1982.664063	327.418732
19446.111170	16904.393000	1981.696289	55.689827
19446.111170	16904.393000	1980.728516	166.844864
19446.111170	16904.393000	1979.761719	-114.887619
19446.111170	16904.393000	1978.792969	102.215744
19446.111170	16904.393000	1977.825195	-167.276199
19446.111170	16904.393000	1976.857422	148.258804
19446.111170	16904.393000	1975.888672	480.860504
19446.111170	16904.393000	1974.919922	430.753448
19446.111170	16904.393000	1973.951172	25.296356
19446.111170	16904.393000	1972.982422	315.496307
19446.111170	16904.393000	1972.013672	87.586937
19446.111170	16904.393000	1971.043945	-12.099898
19446.111170	16904.393000	1970.075195	-77.336098
19446.111170	16904.393000	1969.105469	-93.324432
19446.111170	16904.393000	1968.135742	114.870888
19446.111170	16904.393000	1967.165039	46.956177
19446.111170	16904.393000	1966.195313	77.519379
19446.111170	16904.393000	1965.224609	213.915405
19446.111170	16904.393000	1964.253906	384.662201
19446.111170	16904.393000	1963.283203	245.051422
19446.111170	16904.393000	1962.312500	132.503647
19446.111170	16904.393000	1961.341797	556.474487
19446.111170	16904.393000	1960.370117	-146.783798
19446.111170	16904.393000	1959.399414	139.180679
19446.111170	16904.393000	1958.427734	56.018337
19446.111170	16904.393000	1957.455078	-59.128098
19446.111170	16904.393000	1956.483398	211.752045
19446.111170	16904.393000	1955.511719	67.000511
19446.111170	16904.393000	1954.539063	27.958786
19446.111170	16904.393000	1953.566406	222.348099
19446.111170	16904.393000	1952.593750	75.088455
19446.111170	16904.393000	1951.621094	453.552948
19446.111170	16904.393000	1950.647461	200.617798
19446.111170	16904.393000	1949.674805	166.278427
19446.111170	16904.393000	1948.701172	77.914169
19446.111170	16904.393000	1947.727539	244.839996
19446.111170	16904.393000	1946.753906	-20.290005
19446.111170	16904.393000	1945.780273	107.264145
19446.111170	16904.393000	1944.805664	-13.043675
19446.111170	16904.393000	1943.831055	-179.941498
19446.111170	16904.393000	1942.856445	403.658173
19446.111170	16904.393000	1941.881836	295.538086
19446.111170	16904.393000	1940.907227	37.887218
19446.111170	16904.393000	1939.932617	103.855438
19446.111170	16904.393000	1938.957031	-158.603806
19446.111170	16904.393000	1937.981445	-175.960831
19446.111170	16904.393000	1937.005859	250.074722
19446.111170	16904.393000	1936.030273	-85.800568
19446.111170	16904.393000	1935.054688	-78.730049
19446.111170	16904.393000	1934.078125	577.157410
19446.111170	16904.393000	1933.101563	84.699982
19446.111170	16904.393000	1932.125000	-304.792633
19446.111170	16904.393000	1931.148438	59.532143
19446.111170	16904.393000	1930.171875	135.011292
19446.111170	16904.393000	1929.194336	200.679688
19446.111170	16904.393000	1928.217773	-132.338196
19446.111170	16904.393000	1927.240234	280.553741
19446.111170	16904.393000	1926.262695	172.552872
19446.111170	16904.393000	1925.284180	-130.950607
19446.111170	16904.393000	1924.306641	-4.238556
19446.111170	16904.393000	1923.328125	159.077850
19446.111170	16904.393000	1922.350586	361.408142
19446.111170	16904.393000	1921.372070	-596.507385
19446.111170	16904.393000	1920.392578	45.460781
19446.111170	16904.393000	1919.414063	181.772873
19446.111170	16904.393000	1918.434570	144.723755
19446.111170	16904.393000	1917.456055	-163.238129
19446.111170	16904.393000	1916.476563	175.576523
19446.111170	16904.393000	1915.497070	-51.756279
19446.111170	16904.393000	1914.516602	121.047729
19446.111170	16904.393000	1913.537109	101.108780
19446.111170	16904.393000	1912.556641	-404.051941
19446.111170	16904.393000	1911.576172	458.653168
19446.111170	16904.393000	1910.595703	216.861160
19446.111170	16904.393000	1909.615234	-132.064407
19446.111170	16904.393000	1908.633789	-215.265244
19446.111170	16904.393000	1907.653320	239.933441
19446.111170	16904.393000	1906.671875	-162.373154
19446.111170	16904.393000	1905.690430	-16.609327
19446.111170	16904.393000	1904.708984	-211.759293
19446.111170	16904.393000	1903.727539	389.173157
19446.111170	16904.393000	1902.745117	155.089172
19446.111170	16904.393000	1901.762695	-110.533348
19446.111170	16904.393000	1900.780273	-183.858398
19446.111170	16904.393000	1899.797852	68.793732
19446.111170	16904.393000	1898.815430	165.708191
19446.111170	16904.393000	1897.832031	65.645325
19446.111170	16904.393000	1896.849609	-233.739914
19446.111170	16904.393000	1895.866211	45.491146
19446.111170	16904.393000	1894.882813	-61.781364
19446.111170	16904.393000	1893.898438	-149.562805
19446.111170	16904.393000	1892.915039	59.051678
19446.111170	16904.393000	1891.930664	78.153008
19446.111170	16904.393000	1890.947266	-427.291504
19446.111170	16904.393000	1889.962891	-116.757401
19446.111170	16904.393000	1888.977539	208.239487
19446.111170	16904.393000	1887.993164	-442.552338
19446.111170	16904.393000	1887.007813	173.567276
19446.111170	16904.393000	1886.023438	-197.973495
19446.111170	16904.393000	1885.038086	303.865356
19446.111170	16904.393000	1884.051758	141.024887
19446.111170	16904.393000	1883.066406	-315.156647
19446.111170	16904.393000	1882.081055	70.053436
19446.111170	16904.393000	1881.094727	307.274506
19446.111170	16904.393000	1880.108398	-100.211235
19446.111170	16904.393000	1879.122070	-260.408142
19446.111170	16904.393000	1878.135742	-284.894745
19446.111170	16904.393000	1877.148438	-188.262680
19446.111170	16904.393000	1876.162109	174.693390
19446.111170	16904.393000	1875.174805	181.614807
19446.111170	16904.393000	1874.187500	-174.571762
19446.111170	16904.393000	1873.199219	-298.278381
19446.111170	16904.393000	1872.211914	-274.350464
19446.111170	16904.393000	1871.223633	141.497772
19446.111170	16904.393000	1870.236328	-250.719757
19446.111170	16904.393000	1869.248047	-318.725128
19446.111170	16904.393000	1868.258789	-45.772877
19446.111170	16904.393000	1867.270508	193.209595
19446.111170	16904.393000	1866.282227	219.399948
19446.111170	16904.393000	1865.292969	156.163315
19446.111170	16904.393000	1864.303711	-1.284635
19446.111170	16904.393000	1863.314453	-122.452354
19446.111170	16904.393000	1862.324219	174.251785
19446.111170	16904.393000	1861.334961	156.908234
19446.111170	16904.393000	1860.344727	-275.693695
19446.111170	16904.393000	1859.354492	-396.760193
19446.111170	16904.393000	1858.364258	-30.291964
19446.111170	16904.393000	1857.374023	-6.613882
19446.111170	16904.393000	1856.383789	-303.820404
19446.111170	16904.393000	1855.392578	392.836212
19446.111170	16904.393000	1854.401367	293.391907
19446.111170	16904.393000	1853.410156	218.076523
19446.111170	16904.393000	1852.418945	342.858063
19446.111170	16904.393000	1851.426758	-265.125305
19446.111170	16904.393000	1850.435547	-22.265409
19446.111170	16904.393000	1849.443359	90.394501
19446.111170	16904.393000	1848.451172	159.628830
19446.111170	16904.393000	1847.458984	108.393860
19446.111170	16904.393000	1846.466797	107.720093
19446.111170	16904.393000	1845.473633	-42.234898
19446.111170	16904.393000	1844.480469	-40.509155
19446.111170	16904.393000	1843.487305	21.353588
19446.111170	16904.393000	1842.494141	143.317413
19446.111170	16904.393000	1841.500977	-21.067667
19446.111170	16904.393000	1840.506836	-173.382523
19446.111170	16904.393000	1839.513672	309.184601
19446.111170	16904.393000	1838.519531	231.339859
19446.111170	16904.393000	1837.525391	372.244629
19446.111170	16904.393000	1836.530273	118.915558
19446.111170	16904.393000	1835.536133	221.277893
19446.111170	16904.393000	1834.541016	-147.313980
19446.111170	16904.393000	1833.545898	70.305313
19446.111170	16904.393000	1832.550781	-43.618935
19446.111170	16904.393000	1831.555664	-107.110931
19446.111170	16904.393000	1830.560547	47.851982
19446.111170	16904.393000	1829.564453	3.508868
19446.111170	16904.393000	1828.568359	16.736210
19446.111170	16904.393000	1827.572266	361.033234
19446.111170	16904.393000	1826.576172	206.188217
19446.111170	16904.393000	1825.580078	68.149597
19446.111170	16904.393000	1824.583008	124.367195
19446.111170	16904.393000	1823.585938	-119.169022
19446.111170	16904.393000	1822.588867	159.911255
19446.111170	16904.393000	1821.591797	213.556488
19446.111170	16904.393000	1820.594727	190.461227
19446.111170	16904.393000	1819.596680	49.942249
19446.111170	16904.393000	1818.599609	536.992554
19446.111170	16904.393000	1817.601563	73.066780
19446.111170	16904.393000	1816.603516	128.854401
19446.111170	16904.393000	1815.604492	74.457214
19446.111170	16904.393000	1814.606445	43.958447
19446.111170	16904.393000	1813.607422	75.648277
19446.111170	16904.393000	1812.608398	499.657837
19446.111170	16904.393000	1811.609375	52.724670
19446.111170	16904.393000	1810.610352	89.023842
19446.111170	16904.393000	1809.610352	-22.987696
19446.111170	16904.393000	1808.611328	520.047363
19446.111170	16904.393000	1807.611328	144.949905
19446.111170	16904.393000	1806.611328	295.710724
19446.111170	16904.393000	1805.610352	97.513176
19446.111170	16904.393000	1804.610352	131.054855
19446.111170	16904.393000	1803.609375	109.597618
19446.111170	16904.393000	1802.608398	326.898163
19446.111170	16904.393000	1801.607422	372.147217
19446.111170	16904.393000	1800.606445	262.156647
19446.111170	16904.393000	1799.605469	-141.417969
19446.111170	16904.393000	1798.603516	75.532127
19446.111170	16904.393000	1797.601563	137.263962
19446.111170	16904.393000	1796.599609	8.081590
19446.111170	16904.393000	1795.597656	-87.730446
19446.111170	16904.393000	1794.595703	-205.024323
19446.111170	16904.393000	1793.592773	206.913895
19446.111170	16904.393000	1792.589844	120.470520
19446.111170	16904.393000	1791.587891	3.004730
19446.111170	16904.393000	1790.583984	273.905334
19446.111170	16904.393000	1789.581055	254.001129
19446.111170	16904.393000	1788.577148	295.970245
19446.111170	16904.393000	1787.574219	442.621826
19446.111170	16904.393000	1786.570313	189.176743
19446.111170	16904.393000	1785.566406	-297.517273
19446.111170	16904.393000	1784.561523	53.647720
19446.111170	16904.393000	1783.557617	178.551849
19446.111170	16904.393000	1782.552734	-127.264267
19446.111170	16904.393000	1781.547852	-226.097122
19446.111170	16904.393000	1780.542969	-213.193268
19446.111170	16904.393000	1779.538086	87.333542
19446.111170	16904.393000	1778.532227	7.325279
19446.111170	16904.393000	1777.527344	183.955917
19446.111170	16904.393000	1776.521484	576.698914
19446.111170	16904.393000	1775.515625	185.180115
19446.111170	16904.393000	1774.508789	242.694427
19446.111170	16904.393000	1773.502930	195.607803
19446.111170	16904.393000	1772.496094	148.471313
19446.111170	16904.393000	1771.489258	113.141640
19446.111170	16904.393000	1770.482422	-62.291771
19446.111170	16904.393000	1769.475586	343.690277
19446.111170	16904.393000	1768.467773	640.304138
19446.111170	16904.393000	1767.460938	338.905060
19446.111170	16904.393000	1766.453125	70.758110
19446.111170	16904.393000	1765.445313	-325.424072
19446.111170	16904.393000	1764.437500	-145.399567
19446.111170	16904.393000	1763.428711	-65.077347
19446.111170	16904.393000	1762.420898	88.597862
19446.111170	16904.393000	1761.412109	180.534958
19446.111170	16904.393000	1760.403320	442.927521
19446.111170	16904.393000	1759.393555	264.577301
19446.111170	16904.393000	1758.384766	474.594879
19446.111170	16904.393000	1757.375000	272.466736
19446.111170	16904.393000	1756.366211	-48.036049
19446.111170	16904.393000	1755.356445	-37.138199
19446.111170	16904.393000	1754.345703	-76.012001
19446.111170	16904.393000	1753.335938	-164.643661
19446.111170	16904.393000	1752.325195	219.784592
19446.111170	16904.393000	1751.315430	31.630676
19446.111170	16904.393000	1750.304688	-64.307472
19446.111170	16904.393000	1749.292969	-98.819244
19446.111170	16904.393000	1748.282227	65.145164
19446.111170	16904.393000	1747.270508	56.449696
19446.111170	16904.393000	1746.259766	168.175751
19446.111170	16904.393000	1745.248047	24.644003
19446.111170	16904.393000	1744.235352	60.588558
19446.111170	16904.393000	1743.223633	56.290558
19446.111170	16904.393000	1742.211914	56.632893
19446.111170	16904.393000	1741.199219	108.826279
19446.111170	16904.393000	1740.186523	-169.496384
19446.111170	16904.393000	1739.173828	-225.991287
19446.111170	16904.393000	1738.160156	-119.760445
19446.111170	16904.393000	1737.147461	-39.599777
19446.111170	16904.393000	1736.133789	-263.775879
19446.111170	16904.393000	1735.120117	-11.663145
19446.111170	16904.393000	1734.106445	39.890839
19446.111170	16904.393000	1733.091797	13.565019
19446.111170	16904.393000	1732.078125	222.814316
19446.111170	16904.393000	1731.063477	33.730816
19446.111170	16904.393000	1730.048828	-157.723511
19446.111170	16904.393000	1729.034180	22.928057
19446.111170	16904.393000	1728.019531	38.599792
19446.111170	16904.393000	1727.003906	214.274933
19446.111170	16904.393000	1725.988281	-238.666229
19446.111170	16904.393000	1724.972656	-178.489075
19446.111170	16904.393000	1723.957031	-513.701172
19446.111170	16904.393000	1722.941406	-119.610832
19446.111170	16904.393000	1721.924805	31.995308
19446.111170	16904.393000	1720.909180	-322.125183
19446.111170	16904.393000	1719.892578	191.364349
19446.111170	16904.393000	1718.875977	-364.967682
19446.111170	16904.393000	1717.858398	14.212953
19446.111170	16904.393000	1716.841797	-227.167511
19446.111170	16904.393000	1715.824219	-196.015213
19446.111170	16904.393000	1714.806641	213.211334
19446.111170	16904.393000	1713.789063	-310.116425
19446.111170	16904.393000	1712.770508	-46.758266
19446.111170	16904.393000	1711.752930	322.056549
19446.111170	16904.393000	1710.734375	139.093124
19446.111170	16904.393000	1709.715820	-285.575409
19446.111170	16904.393000	1708.697266	-137.698563
19446.111170	16904.393000	1707.678711	-578.729004
19446.111170	16904.393000	1706.659180	-163.649597
19446.111170	16904.393000	1705.640625	87.057533
19446.111170	16904.393000	1704.621094	135.980865
19446.111170	16904.393000	1703.600586	137.929321
19446.111170	16904.393000	1702.581055	399.925079
19446.111170	16904.393000	1701.561523	97.082924
19446.111170	16904.393000	1700.541016	12.138412
19446.111170	16904.393000	1699.520508	-70.506317
19446.111170	16904.393000	1698.500000	364.317322
19446.111170	16904.393000	1697.478516	-72.030304
19446.111170	16904.393000	1696.458008	219.692703
19446.111170	16904.393000	1695.436523	148.483871
19446.111170	16904.393000	1694.415039	182.527008
19446.111170	16904.393000	1693.393555	436.389160
19446.111170	16904.393000	1692.372070	170.836609
19446.111170	16904.393000	1691.349609	80.706039
19446.111170	16904.393000	1690.327148	432.431549
19446.111170	16904.393000	1689.304688	330.459198
19446.111170	16904.393000	1688.282227	221.445908
19446.111170	16904.393000	1687.259766	119.419762
19446.111170	16904.393000	1686.236328	559.377380
19446.111170	16904.393000	1685.213867	503.909729
19446.111170	16904.393000	1684.190430	-210.174316
19446.111170	16904.393000	1683.166016	114.989098
19446.111170	16904.393000	1682.142578	311.569550
19446.111170	16904.393000	1681.119141	713.403381
19446.111170	16904.393000	1680.094727	573.635315
19446.111170	16904.393000	1679.070313	825.821472
19446.111170	16904.393000	1678.045898	662.638367
19446.111170	16904.393000	1677.020508	459.812653
19446.111170	16904.393000	1675.996094	403.905304
19446.111170	16904.393000	1674.970703	403.911713
19446.111170	16904.393000	1673.945313	739.509277
19446.111170	16904.393000	1672.919922	986.362915
19446.111170	16904.393000	1671.893555	652.906250
19446.111170	16904.393000	1670.868164	1002.071716
19446.111170	16904.393000	1669.841797	344.893463
19446.111170	16904.393000	1668.815430	707.846008
19446.111170	16904.393000	1667.789063	823.824829
19446.111170	16904.393000	1666.761719	460.196869
19446.111170	16904.393000	1665.735352	469.024139
19446.111170	16904.393000	1664.708008	929.203491
19446.111170	16904.393000	1663.680664	684.264587
19446.111170	16904.393000	1662.653320	495.196625
19446.111170	16904.393000	1661.625000	468.936707
19446.111170	16904.393000	1660.597656	870.445740
19446.111170	16904.393000	1659.569336	1122.983521
19446.111170	16904.393000	1658.541016	538.697144
19446.111170	16904.393000	1657.512695	575.017273
19446.111170	16904.393000	1656.483398	1122.388672
19446.111170	16904.393000	1655.455078	896.022644
19446.111170	16904.393000	1654.425781	871.752991
19446.111170	16904.393000	1653.396484	1042.488647
19446.111170	16904.393000	1652.366211	1143.478882
19446.111170	16904.393000	1651.336914	1065.681519
19446.111170	16904.393000	1650.306641	1398.609619
19446.111170	16904.393000	1649.276367	1360.164673
19446.111170	16904.393000	1648.246094	1470.156372
19446.111170	16904.393000	1647.215820	1248.433350
19446.111170	16904.393000	1646.185547	1235.453979
19446.111170	16904.393000	1645.154297	1222.443970
19446.111170	16904.393000	1644.123047	1438.882935
19446.111170	16904.393000	1643.091797	1715.459595
19446.111170	16904.393000	1642.060547	1354.749268
19446.111170	16904.393000	1641.028320	1353.204224
19446.111170	16904.393000	1639.997070	1805.587646
19446.111170	16904.393000	1638.964844	1634.873169
19446.111170	16904.393000	1637.931641	1934.179077
19446.111170	16904.393000	1636.899414	1474.131836
19446.111170	16904.393000	1635.867188	1882.086060
19446.111170	16904.393000	1634.833984	1834.044922
19446.111170	16904.393000	1633.800781	1015.660034
19446.111170	16904.393000	1632.767578	1807.358398
19446.111170	16904.393000	1631.734375	1590.508667
19446.111170	16904.393000	1630.700195	2025.711304
19446.111170	16904.393000	1629.666016	1868.977539
19446.111170	16904.393000	1628.631836	1548.207153
19446.111170	16904.393000	1627.597656	1375.436401
19446.111170	16904.393000	1626.563477	2360.135742
19446.111170	16904.393000	1625.528320	2115.655273
19446.111170	16904.393000	1624.493164	1725.780151
19446.111170	16904.393000	1623.458008	1947.898193
19446.111170	16904.393000	1622.422852	2012.959961
19446.111170	16904.393000	1621.387695	2449.576172
19446.111170	16904.393000	1620.351563	2272.222412
19446.111170	16904.393000	1619.315430	2028.035034
19446.111170	16904.393000	1618.279297	2335.226318
19446.111170	16904.393000	1617.243164	2028.864136
19446.111170	16904.393000	1616.207031	2149.184082
19446.111170	16904.393000	1615.169922	2209.524902
19446.111170	16904.393000	1614.132813	2276.765625
19446.111170	16904.393000	1613.095703	2399.297852
19446.111170	16904.393000	1612.058594	1899.732300
19446.111170	16904.393000	1611.020508	1794.267578
19446.111170	16904.393000	1609.983398	2276.127930
19446.111170	16904.393000	1608.945313	2168.357422
19446.111170	16904.393000	1607.907227	2267.838379
19446.111170	16904.393000	1606.868164	2562.937500
19446.111170	16904.393000	1605.830078	2305.648193
19446.111170	16904.393000	1604.791016	2303.866455
19446.111170	16904.393000	1603.751953	2447.025146
19446.111170	16904.393000	1602.712891	2820.145508
19446.111170	16904.393000	1601.673828	2751.650391
19446.111170	16904.393000	1600.633789	2722.289551
19446.111170	16904.393000	1599.594727	2610.224121
19446.111170	16904.393000	1598.554688	2773.999023
19446.111170	16904.393000	1597.513672	2597.689941
19446.111170	16904.393000	1596.473633	2952.133301
19446.111170	16904.393000	1595.433594	2649.602539
19446.111170	16904.393000	1594.392578	2411.519287
