#X		#Y		#Wave		#Intensity
19348.183830	16856.394000	2000.043945	85.051193
19348.183830	16856.394000	1999.080078	51.333214
19348.183830	16856.394000	1998.116211	-171.519608
19348.183830	16856.394000	1997.151367	-3.131381
19348.183830	16856.394000	1996.186523	511.664703
19348.183830	16856.394000	1995.222656	-2.193552
19348.183830	16856.394000	1994.256836	239.214508
19348.183830	16856.394000	1993.291992	103.744766
19348.183830	16856.394000	1992.327148	-126.115494
19348.183830	16856.394000	1991.361328	428.478638
19348.183830	16856.394000	1990.395508	279.648224
19348.183830	16856.394000	1989.429688	-309.912811
19348.183830	16856.394000	1988.463867	-149.940353
19348.183830	16856.394000	1987.497070	239.716965
19348.183830	16856.394000	1986.531250	47.738815
19348.183830	16856.394000	1985.564453	162.167374
19348.183830	16856.394000	1984.597656	71.081474
19348.183830	16856.394000	1983.630859	93.455139
19348.183830	16856.394000	1982.664063	192.172348
19348.183830	16856.394000	1981.696289	421.565247
19348.183830	16856.394000	1980.728516	161.494308
19348.183830	16856.394000	1979.761719	-340.776764
19348.183830	16856.394000	1978.792969	-168.907822
19348.183830	16856.394000	1977.825195	-165.226654
19348.183830	16856.394000	1976.857422	206.050644
19348.183830	16856.394000	1975.888672	448.656097
19348.183830	16856.394000	1974.919922	7.446712
19348.183830	16856.394000	1973.951172	-73.585777
19348.183830	16856.394000	1972.982422	360.765045
19348.183830	16856.394000	1972.013672	284.264008
19348.183830	16856.394000	1971.043945	419.696106
19348.183830	16856.394000	1970.075195	165.378845
19348.183830	16856.394000	1969.105469	204.327942
19348.183830	16856.394000	1968.135742	-72.329872
19348.183830	16856.394000	1967.165039	538.001648
19348.183830	16856.394000	1966.195313	-12.347636
19348.183830	16856.394000	1965.224609	368.409637
19348.183830	16856.394000	1964.253906	51.993973
19348.183830	16856.394000	1963.283203	319.090698
19348.183830	16856.394000	1962.312500	556.431885
19348.183830	16856.394000	1961.341797	-134.293442
19348.183830	16856.394000	1960.370117	240.637924
19348.183830	16856.394000	1959.399414	152.787079
19348.183830	16856.394000	1958.427734	111.622345
19348.183830	16856.394000	1957.455078	399.941223
19348.183830	16856.394000	1956.483398	257.750305
19348.183830	16856.394000	1955.511719	189.283752
19348.183830	16856.394000	1954.539063	81.447098
19348.183830	16856.394000	1953.566406	366.784821
19348.183830	16856.394000	1952.593750	497.144867
19348.183830	16856.394000	1951.621094	219.597748
19348.183830	16856.394000	1950.647461	121.399803
19348.183830	16856.394000	1949.674805	185.245361
19348.183830	16856.394000	1948.701172	-131.536819
19348.183830	16856.394000	1947.727539	-325.515778
19348.183830	16856.394000	1946.753906	273.284607
19348.183830	16856.394000	1945.780273	633.789612
19348.183830	16856.394000	1944.805664	-38.760906
19348.183830	16856.394000	1943.831055	39.508984
19348.183830	16856.394000	1942.856445	-78.483543
19348.183830	16856.394000	1941.881836	188.506699
19348.183830	16856.394000	1940.907227	23.892746
19348.183830	16856.394000	1939.932617	-23.037455
19348.183830	16856.394000	1938.957031	-13.591784
19348.183830	16856.394000	1937.981445	191.843658
19348.183830	16856.394000	1937.005859	328.595612
19348.183830	16856.394000	1936.030273	117.475090
19348.183830	16856.394000	1935.054688	445.167999
19348.183830	16856.394000	1934.078125	420.170593
19348.183830	16856.394000	1933.101563	838.248840
19348.183830	16856.394000	1932.125000	260.041443
19348.183830	16856.394000	1931.148438	-29.211288
19348.183830	16856.394000	1930.171875	70.648796
19348.183830	16856.394000	1929.194336	-22.761391
19348.183830	16856.394000	1928.217773	-191.963272
19348.183830	16856.394000	1927.240234	328.458588
19348.183830	16856.394000	1926.262695	-175.660080
19348.183830	16856.394000	1925.284180	-105.163597
19348.183830	16856.394000	1924.306641	-337.737762
19348.183830	16856.394000	1923.328125	135.934937
19348.183830	16856.394000	1922.350586	-157.651764
19348.183830	16856.394000	1921.372070	120.432831
19348.183830	16856.394000	1920.392578	-148.579620
19348.183830	16856.394000	1919.414063	-7.301116
19348.183830	16856.394000	1918.434570	87.562187
19348.183830	16856.394000	1917.456055	-12.851902
19348.183830	16856.394000	1916.476563	-193.733978
19348.183830	16856.394000	1915.497070	167.094604
19348.183830	16856.394000	1914.516602	164.359238
19348.183830	16856.394000	1913.537109	195.779404
19348.183830	16856.394000	1912.556641	510.066742
19348.183830	16856.394000	1911.576172	192.837112
19348.183830	16856.394000	1910.595703	234.052002
19348.183830	16856.394000	1909.615234	-238.936508
19348.183830	16856.394000	1908.633789	106.963943
19348.183830	16856.394000	1907.653320	-44.215202
19348.183830	16856.394000	1906.671875	-39.426453
19348.183830	16856.394000	1905.690430	67.664368
19348.183830	16856.394000	1904.708984	203.952057
19348.183830	16856.394000	1903.727539	-32.235065
19348.183830	16856.394000	1902.745117	-61.425861
19348.183830	16856.394000	1901.762695	196.557327
19348.183830	16856.394000	1900.780273	-253.508087
19348.183830	16856.394000	1899.797852	121.217804
19348.183830	16856.394000	1898.815430	-14.893922
19348.183830	16856.394000	1897.832031	233.264481
19348.183830	16856.394000	1896.849609	160.438339
19348.183830	16856.394000	1895.866211	-167.543594
19348.183830	16856.394000	1894.882813	-19.062708
19348.183830	16856.394000	1893.898438	-290.948822
19348.183830	16856.394000	1892.915039	71.320473
19348.183830	16856.394000	1891.930664	-115.430023
19348.183830	16856.394000	1890.947266	-370.088226
19348.183830	16856.394000	1889.962891	47.909027
19348.183830	16856.394000	1888.977539	96.811440
19348.183830	16856.394000	1887.993164	-155.245697
19348.183830	16856.394000	1887.007813	238.289078
19348.183830	16856.394000	1886.023438	325.996216
19348.183830	16856.394000	1885.038086	360.337402
19348.183830	16856.394000	1884.051758	295.261383
19348.183830	16856.394000	1883.066406	-48.624184
19348.183830	16856.394000	1882.081055	179.764725
19348.183830	16856.394000	1881.094727	114.816917
19348.183830	16856.394000	1880.108398	-61.568455
19348.183830	16856.394000	1879.122070	62.572857
19348.183830	16856.394000	1878.135742	0.154281
19348.183830	16856.394000	1877.148438	56.463013
19348.183830	16856.394000	1876.162109	-27.694464
19348.183830	16856.394000	1875.174805	110.944359
19348.183830	16856.394000	1874.187500	-253.952042
19348.183830	16856.394000	1873.199219	320.352722
19348.183830	16856.394000	1872.211914	-308.174866
19348.183830	16856.394000	1871.223633	-167.104309
19348.183830	16856.394000	1870.236328	-96.238754
19348.183830	16856.394000	1869.248047	-347.022675
19348.183830	16856.394000	1868.258789	26.132969
19348.183830	16856.394000	1867.270508	-135.114075
19348.183830	16856.394000	1866.282227	-98.101723
19348.183830	16856.394000	1865.292969	112.910278
19348.183830	16856.394000	1864.303711	89.484703
19348.183830	16856.394000	1863.314453	155.452728
19348.183830	16856.394000	1862.324219	100.648323
19348.183830	16856.394000	1861.334961	137.619720
19348.183830	16856.394000	1860.344727	-187.558075
19348.183830	16856.394000	1859.354492	153.611267
19348.183830	16856.394000	1858.364258	38.521389
19348.183830	16856.394000	1857.374023	-98.242691
19348.183830	16856.394000	1856.383789	-25.072493
19348.183830	16856.394000	1855.392578	110.791664
19348.183830	16856.394000	1854.401367	388.889038
19348.183830	16856.394000	1853.410156	-13.066452
19348.183830	16856.394000	1852.418945	-87.021042
19348.183830	16856.394000	1851.426758	347.616943
19348.183830	16856.394000	1850.435547	516.993408
19348.183830	16856.394000	1849.443359	281.546448
19348.183830	16856.394000	1848.451172	446.049805
19348.183830	16856.394000	1847.458984	355.190002
19348.183830	16856.394000	1846.466797	329.368439
19348.183830	16856.394000	1845.473633	368.555603
19348.183830	16856.394000	1844.480469	366.798676
19348.183830	16856.394000	1843.487305	263.952118
19348.183830	16856.394000	1842.494141	117.815842
19348.183830	16856.394000	1841.500977	549.088074
19348.183830	16856.394000	1840.506836	285.075226
19348.183830	16856.394000	1839.513672	290.470306
19348.183830	16856.394000	1838.519531	199.683884
19348.183830	16856.394000	1837.525391	445.454590
19348.183830	16856.394000	1836.530273	126.315247
19348.183830	16856.394000	1835.536133	367.158356
19348.183830	16856.394000	1834.541016	557.448914
19348.183830	16856.394000	1833.545898	396.937469
19348.183830	16856.394000	1832.550781	3.509789
19348.183830	16856.394000	1831.555664	525.047791
19348.183830	16856.394000	1830.560547	246.925583
19348.183830	16856.394000	1829.564453	48.101673
19348.183830	16856.394000	1828.568359	-193.872543
19348.183830	16856.394000	1827.572266	336.806763
19348.183830	16856.394000	1826.576172	421.064484
19348.183830	16856.394000	1825.580078	198.255264
19348.183830	16856.394000	1824.583008	-46.072701
19348.183830	16856.394000	1823.585938	273.085327
19348.183830	16856.394000	1822.588867	139.037064
19348.183830	16856.394000	1821.591797	141.613770
19348.183830	16856.394000	1820.594727	184.888824
19348.183830	16856.394000	1819.596680	362.285309
19348.183830	16856.394000	1818.599609	503.642120
19348.183830	16856.394000	1817.601563	510.802338
19348.183830	16856.394000	1816.603516	393.419373
19348.183830	16856.394000	1815.604492	592.045105
19348.183830	16856.394000	1814.606445	225.690659
19348.183830	16856.394000	1813.607422	450.519135
19348.183830	16856.394000	1812.608398	-25.804089
19348.183830	16856.394000	1811.609375	110.396027
19348.183830	16856.394000	1810.610352	299.118774
19348.183830	16856.394000	1809.610352	327.525238
19348.183830	16856.394000	1808.611328	95.271599
19348.183830	16856.394000	1807.611328	286.157257
19348.183830	16856.394000	1806.611328	510.386932
19348.183830	16856.394000	1805.610352	251.828644
19348.183830	16856.394000	1804.610352	76.928024
19348.183830	16856.394000	1803.609375	396.476349
19348.183830	16856.394000	1802.608398	286.006714
19348.183830	16856.394000	1801.607422	-352.133820
19348.183830	16856.394000	1800.606445	0.589304
19348.183830	16856.394000	1799.605469	174.128662
19348.183830	16856.394000	1798.603516	400.055084
19348.183830	16856.394000	1797.601563	29.394194
19348.183830	16856.394000	1796.599609	-219.526443
19348.183830	16856.394000	1795.597656	278.070038
19348.183830	16856.394000	1794.595703	267.538544
19348.183830	16856.394000	1793.592773	483.445862
19348.183830	16856.394000	1792.589844	344.071838
19348.183830	16856.394000	1791.587891	247.579330
19348.183830	16856.394000	1790.583984	408.411438
19348.183830	16856.394000	1789.581055	202.264847
19348.183830	16856.394000	1788.577148	143.812241
19348.183830	16856.394000	1787.574219	678.259094
19348.183830	16856.394000	1786.570313	174.410782
19348.183830	16856.394000	1785.566406	-343.585205
19348.183830	16856.394000	1784.561523	180.978119
19348.183830	16856.394000	1783.557617	236.517685
19348.183830	16856.394000	1782.552734	334.807190
19348.183830	16856.394000	1781.547852	283.150726
19348.183830	16856.394000	1780.542969	150.598694
19348.183830	16856.394000	1779.538086	232.029770
19348.183830	16856.394000	1778.532227	227.795227
19348.183830	16856.394000	1777.527344	641.808838
19348.183830	16856.394000	1776.521484	-37.496117
19348.183830	16856.394000	1775.515625	-91.748764
19348.183830	16856.394000	1774.508789	276.788727
19348.183830	16856.394000	1773.502930	98.878304
19348.183830	16856.394000	1772.496094	628.585693
19348.183830	16856.394000	1771.489258	46.969486
19348.183830	16856.394000	1770.482422	158.603836
19348.183830	16856.394000	1769.475586	163.347977
19348.183830	16856.394000	1768.467773	222.603485
19348.183830	16856.394000	1767.460938	547.461304
19348.183830	16856.394000	1766.453125	476.048981
19348.183830	16856.394000	1765.445313	77.351418
19348.183830	16856.394000	1764.437500	465.888092
19348.183830	16856.394000	1763.428711	185.751785
19348.183830	16856.394000	1762.420898	21.780212
19348.183830	16856.394000	1761.412109	374.381622
19348.183830	16856.394000	1760.403320	340.619415
19348.183830	16856.394000	1759.393555	354.191711
19348.183830	16856.394000	1758.384766	301.374237
19348.183830	16856.394000	1757.375000	269.832642
19348.183830	16856.394000	1756.366211	448.924927
19348.183830	16856.394000	1755.356445	43.277504
19348.183830	16856.394000	1754.345703	208.034790
19348.183830	16856.394000	1753.335938	247.262299
19348.183830	16856.394000	1752.325195	385.773560
19348.183830	16856.394000	1751.315430	472.130402
19348.183830	16856.394000	1750.304688	-193.549103
19348.183830	16856.394000	1749.292969	107.910782
19348.183830	16856.394000	1748.282227	480.099670
19348.183830	16856.394000	1747.270508	-123.935051
19348.183830	16856.394000	1746.259766	49.556648
19348.183830	16856.394000	1745.248047	-95.991333
19348.183830	16856.394000	1744.235352	155.260910
19348.183830	16856.394000	1743.223633	-219.432266
19348.183830	16856.394000	1742.211914	312.575836
19348.183830	16856.394000	1741.199219	25.220734
19348.183830	16856.394000	1740.186523	-243.209946
19348.183830	16856.394000	1739.173828	45.284103
19348.183830	16856.394000	1738.160156	269.911743
19348.183830	16856.394000	1737.147461	397.681976
19348.183830	16856.394000	1736.133789	79.633255
19348.183830	16856.394000	1735.120117	386.475403
19348.183830	16856.394000	1734.106445	-205.029449
19348.183830	16856.394000	1733.091797	-235.407074
19348.183830	16856.394000	1732.078125	-133.870453
19348.183830	16856.394000	1731.063477	-171.432419
19348.183830	16856.394000	1730.048828	-65.343742
19348.183830	16856.394000	1729.034180	125.431190
19348.183830	16856.394000	1728.019531	-209.021225
19348.183830	16856.394000	1727.003906	85.191010
19348.183830	16856.394000	1725.988281	-171.557602
19348.183830	16856.394000	1724.972656	105.952179
19348.183830	16856.394000	1723.957031	-66.107246
19348.183830	16856.394000	1722.941406	-0.551755
19348.183830	16856.394000	1721.924805	79.037796
19348.183830	16856.394000	1720.909180	-71.913574
19348.183830	16856.394000	1719.892578	223.857635
19348.183830	16856.394000	1718.875977	-352.629120
19348.183830	16856.394000	1717.858398	-172.177460
19348.183830	16856.394000	1716.841797	285.423187
19348.183830	16856.394000	1715.824219	136.682098
19348.183830	16856.394000	1714.806641	-232.845856
19348.183830	16856.394000	1713.789063	113.980583
19348.183830	16856.394000	1712.770508	-81.743988
19348.183830	16856.394000	1711.752930	-272.749847
19348.183830	16856.394000	1710.734375	-376.883575
19348.183830	16856.394000	1709.715820	-18.746323
19348.183830	16856.394000	1708.697266	388.475128
19348.183830	16856.394000	1707.678711	457.718994
19348.183830	16856.394000	1706.659180	158.689026
19348.183830	16856.394000	1705.640625	21.518829
19348.183830	16856.394000	1704.621094	179.748047
19348.183830	16856.394000	1703.600586	37.861683
19348.183830	16856.394000	1702.581055	109.235771
19348.183830	16856.394000	1701.561523	-23.297022
19348.183830	16856.394000	1700.541016	401.709106
19348.183830	16856.394000	1699.520508	151.989487
19348.183830	16856.394000	1698.500000	131.810547
19348.183830	16856.394000	1697.478516	-108.471825
19348.183830	16856.394000	1696.458008	-46.742828
19348.183830	16856.394000	1695.436523	-176.979019
19348.183830	16856.394000	1694.415039	654.484863
19348.183830	16856.394000	1693.393555	313.548126
19348.183830	16856.394000	1692.372070	412.434204
19348.183830	16856.394000	1691.349609	356.909027
19348.183830	16856.394000	1690.327148	698.845032
19348.183830	16856.394000	1689.304688	638.547791
19348.183830	16856.394000	1688.282227	218.322800
19348.183830	16856.394000	1687.259766	106.674896
19348.183830	16856.394000	1686.236328	90.830780
19348.183830	16856.394000	1685.213867	224.452911
19348.183830	16856.394000	1684.190430	409.376648
19348.183830	16856.394000	1683.166016	363.052063
19348.183830	16856.394000	1682.142578	358.735504
19348.183830	16856.394000	1681.119141	317.052094
19348.183830	16856.394000	1680.094727	420.044891
19348.183830	16856.394000	1679.070313	567.301575
19348.183830	16856.394000	1678.045898	525.537964
19348.183830	16856.394000	1677.020508	208.570358
19348.183830	16856.394000	1675.996094	633.202393
19348.183830	16856.394000	1674.970703	416.542542
19348.183830	16856.394000	1673.945313	582.213684
19348.183830	16856.394000	1672.919922	323.666107
19348.183830	16856.394000	1671.893555	354.118469
19348.183830	16856.394000	1670.868164	419.483856
19348.183830	16856.394000	1669.841797	256.565918
19348.183830	16856.394000	1668.815430	231.085419
19348.183830	16856.394000	1667.789063	249.840195
19348.183830	16856.394000	1666.761719	156.845795
19348.183830	16856.394000	1665.735352	559.581848
19348.183830	16856.394000	1664.708008	520.058960
19348.183830	16856.394000	1663.680664	417.732361
19348.183830	16856.394000	1662.653320	-5.537665
19348.183830	16856.394000	1661.625000	275.971497
19348.183830	16856.394000	1660.597656	327.180969
19348.183830	16856.394000	1659.569336	408.593506
19348.183830	16856.394000	1658.541016	83.246346
19348.183830	16856.394000	1657.512695	589.898315
19348.183830	16856.394000	1656.483398	464.439972
19348.183830	16856.394000	1655.455078	204.304169
19348.183830	16856.394000	1654.425781	666.517090
19348.183830	16856.394000	1653.396484	601.487183
19348.183830	16856.394000	1652.366211	513.272888
19348.183830	16856.394000	1651.336914	499.365662
19348.183830	16856.394000	1650.306641	722.162842
19348.183830	16856.394000	1649.276367	729.111877
19348.183830	16856.394000	1648.246094	891.483337
19348.183830	16856.394000	1647.215820	513.430481
19348.183830	16856.394000	1646.185547	791.731812
19348.183830	16856.394000	1645.154297	675.828613
19348.183830	16856.394000	1644.123047	1315.598145
19348.183830	16856.394000	1643.091797	958.654480
19348.183830	16856.394000	1642.060547	988.791748
19348.183830	16856.394000	1641.028320	803.502197
19348.183830	16856.394000	1639.997070	1118.558350
19348.183830	16856.394000	1638.964844	1329.310791
19348.183830	16856.394000	1637.931641	882.498962
19348.183830	16856.394000	1636.899414	572.446045
19348.183830	16856.394000	1635.867188	1028.542725
19348.183830	16856.394000	1634.833984	945.375122
19348.183830	16856.394000	1633.800781	841.441223
19348.183830	16856.394000	1632.767578	1024.367065
19348.183830	16856.394000	1631.734375	895.063904
19348.183830	16856.394000	1630.700195	929.992859
19348.183830	16856.394000	1629.666016	1304.729858
19348.183830	16856.394000	1628.631836	1145.483154
19348.183830	16856.394000	1627.597656	993.261536
19348.183830	16856.394000	1626.563477	1012.077637
19348.183830	16856.394000	1625.528320	1208.771729
19348.183830	16856.394000	1624.493164	1123.685425
19348.183830	16856.394000	1623.458008	1221.065674
19348.183830	16856.394000	1622.422852	817.511169
19348.183830	16856.394000	1621.387695	700.339355
19348.183830	16856.394000	1620.351563	1040.132813
19348.183830	16856.394000	1619.315430	1075.299316
19348.183830	16856.394000	1618.279297	822.164063
19348.183830	16856.394000	1617.243164	1251.790527
19348.183830	16856.394000	1616.207031	742.859253
19348.183830	16856.394000	1615.169922	584.570374
19348.183830	16856.394000	1614.132813	1009.503235
19348.183830	16856.394000	1613.095703	1164.701782
19348.183830	16856.394000	1612.058594	1098.706055
19348.183830	16856.394000	1611.020508	878.450378
19348.183830	16856.394000	1609.983398	513.233032
19348.183830	16856.394000	1608.945313	1165.941406
19348.183830	16856.394000	1607.907227	1219.893066
19348.183830	16856.394000	1606.868164	666.229492
19348.183830	16856.394000	1605.830078	991.896912
19348.183830	16856.394000	1604.791016	880.341736
19348.183830	16856.394000	1603.751953	817.189880
19348.183830	16856.394000	1602.712891	919.703979
19348.183830	16856.394000	1601.673828	1141.802856
19348.183830	16856.394000	1600.633789	906.374512
19348.183830	16856.394000	1599.594727	1213.540283
19348.183830	16856.394000	1598.554688	1196.618286
19348.183830	16856.394000	1597.513672	1317.617432
19348.183830	16856.394000	1596.473633	990.674194
19348.183830	16856.394000	1595.433594	1052.063477
19348.183830	16856.394000	1594.392578	989.493713
19348.183830	16856.394000	1593.351563	1179.551270
