#X		#Y		#Wave		#Intensity
19478.229734	16971.805333	2000.043945	260.736755
19478.229734	16971.805333	1999.080078	-83.359665
19478.229734	16971.805333	1998.116211	-39.864475
19478.229734	16971.805333	1997.151367	-95.774559
19478.229734	16971.805333	1996.186523	46.285370
19478.229734	16971.805333	1995.222656	-146.400299
19478.229734	16971.805333	1994.256836	-240.174133
19478.229734	16971.805333	1993.291992	0.139425
19478.229734	16971.805333	1992.327148	-106.487221
19478.229734	16971.805333	1991.361328	-44.965580
19478.229734	16971.805333	1990.395508	132.636810
19478.229734	16971.805333	1989.429688	188.716156
19478.229734	16971.805333	1988.463867	29.328650
19478.229734	16971.805333	1987.497070	35.541763
19478.229734	16971.805333	1986.531250	19.298450
19478.229734	16971.805333	1985.564453	-44.094360
19478.229734	16971.805333	1984.597656	43.163319
19478.229734	16971.805333	1983.630859	211.787064
19478.229734	16971.805333	1982.664063	58.918072
19478.229734	16971.805333	1981.696289	153.039825
19478.229734	16971.805333	1980.728516	91.341125
19478.229734	16971.805333	1979.761719	138.188950
19478.229734	16971.805333	1978.792969	135.506210
19478.229734	16971.805333	1977.825195	-74.712151
19478.229734	16971.805333	1976.857422	235.879608
19478.229734	16971.805333	1975.888672	-95.459335
19478.229734	16971.805333	1974.919922	66.729401
19478.229734	16971.805333	1973.951172	280.554504
19478.229734	16971.805333	1972.982422	257.392151
19478.229734	16971.805333	1972.013672	251.397629
19478.229734	16971.805333	1971.043945	343.944183
19478.229734	16971.805333	1970.075195	88.748734
19478.229734	16971.805333	1969.105469	84.980354
19478.229734	16971.805333	1968.135742	236.384415
19478.229734	16971.805333	1967.165039	183.149719
19478.229734	16971.805333	1966.195313	297.372375
19478.229734	16971.805333	1965.224609	155.329636
19478.229734	16971.805333	1964.253906	180.725769
19478.229734	16971.805333	1963.283203	-91.866982
19478.229734	16971.805333	1962.312500	310.074646
19478.229734	16971.805333	1961.341797	-174.221085
19478.229734	16971.805333	1960.370117	350.515442
19478.229734	16971.805333	1959.399414	414.931213
19478.229734	16971.805333	1958.427734	166.883942
19478.229734	16971.805333	1957.455078	24.640400
19478.229734	16971.805333	1956.483398	66.824150
19478.229734	16971.805333	1955.511719	35.200287
19478.229734	16971.805333	1954.539063	180.533676
19478.229734	16971.805333	1953.566406	200.447968
19478.229734	16971.805333	1952.593750	210.496719
19478.229734	16971.805333	1951.621094	-81.649445
19478.229734	16971.805333	1950.647461	174.016022
19478.229734	16971.805333	1949.674805	-29.653013
19478.229734	16971.805333	1948.701172	-76.126671
19478.229734	16971.805333	1947.727539	44.323830
19478.229734	16971.805333	1946.753906	230.983932
19478.229734	16971.805333	1945.780273	159.906555
19478.229734	16971.805333	1944.805664	-73.078125
19478.229734	16971.805333	1943.831055	32.524059
19478.229734	16971.805333	1942.856445	32.623207
19478.229734	16971.805333	1941.881836	-18.776894
19478.229734	16971.805333	1940.907227	118.614571
19478.229734	16971.805333	1939.932617	126.041466
19478.229734	16971.805333	1938.957031	-55.232906
19478.229734	16971.805333	1937.981445	192.353561
19478.229734	16971.805333	1937.005859	1.341394
19478.229734	16971.805333	1936.030273	106.771057
19478.229734	16971.805333	1935.054688	52.991539
19478.229734	16971.805333	1934.078125	38.420113
19478.229734	16971.805333	1933.101563	1.829479
19478.229734	16971.805333	1932.125000	-24.947191
19478.229734	16971.805333	1931.148438	19.259146
19478.229734	16971.805333	1930.171875	-34.400108
19478.229734	16971.805333	1929.194336	168.818237
19478.229734	16971.805333	1928.217773	349.961884
19478.229734	16971.805333	1927.240234	95.807137
19478.229734	16971.805333	1926.262695	240.259064
19478.229734	16971.805333	1925.284180	167.132935
19478.229734	16971.805333	1924.306641	50.058125
19478.229734	16971.805333	1923.328125	-86.497704
19478.229734	16971.805333	1922.350586	219.180588
19478.229734	16971.805333	1921.372070	31.386805
19478.229734	16971.805333	1920.392578	92.773804
19478.229734	16971.805333	1919.414063	5.216630
19478.229734	16971.805333	1918.434570	17.802019
19478.229734	16971.805333	1917.456055	189.041550
19478.229734	16971.805333	1916.476563	-113.157730
19478.229734	16971.805333	1915.497070	84.924881
19478.229734	16971.805333	1914.516602	-146.356598
19478.229734	16971.805333	1913.537109	49.259106
19478.229734	16971.805333	1912.556641	35.130180
19478.229734	16971.805333	1911.576172	272.131378
19478.229734	16971.805333	1910.595703	197.069397
19478.229734	16971.805333	1909.615234	331.641479
19478.229734	16971.805333	1908.633789	-11.376585
19478.229734	16971.805333	1907.653320	-186.159546
19478.229734	16971.805333	1906.671875	-170.870667
19478.229734	16971.805333	1905.690430	80.647659
19478.229734	16971.805333	1904.708984	98.356194
19478.229734	16971.805333	1903.727539	-56.753078
19478.229734	16971.805333	1902.745117	-99.824364
19478.229734	16971.805333	1901.762695	156.444260
19478.229734	16971.805333	1900.780273	127.988068
19478.229734	16971.805333	1899.797852	-160.712830
19478.229734	16971.805333	1898.815430	76.026779
19478.229734	16971.805333	1897.832031	-93.367058
19478.229734	16971.805333	1896.849609	-34.159725
19478.229734	16971.805333	1895.866211	-55.164772
19478.229734	16971.805333	1894.882813	-163.629410
19478.229734	16971.805333	1893.898438	221.202454
19478.229734	16971.805333	1892.915039	49.598408
19478.229734	16971.805333	1891.930664	-19.911304
19478.229734	16971.805333	1890.947266	119.458374
19478.229734	16971.805333	1889.962891	-47.123638
19478.229734	16971.805333	1888.977539	-415.103210
19478.229734	16971.805333	1887.993164	-32.992268
19478.229734	16971.805333	1887.007813	-337.717590
19478.229734	16971.805333	1886.023438	10.296640
19478.229734	16971.805333	1885.038086	11.330750
19478.229734	16971.805333	1884.051758	247.624313
19478.229734	16971.805333	1883.066406	-59.305546
19478.229734	16971.805333	1882.081055	254.506149
19478.229734	16971.805333	1881.094727	-52.286129
19478.229734	16971.805333	1880.108398	-12.414475
19478.229734	16971.805333	1879.122070	-47.658939
19478.229734	16971.805333	1878.135742	159.364487
19478.229734	16971.805333	1877.148438	-45.422211
19478.229734	16971.805333	1876.162109	13.818226
19478.229734	16971.805333	1875.174805	-120.643661
19478.229734	16971.805333	1874.187500	190.348618
19478.229734	16971.805333	1873.199219	36.554924
19478.229734	16971.805333	1872.211914	78.816338
19478.229734	16971.805333	1871.223633	-77.315353
19478.229734	16971.805333	1870.236328	114.920830
19478.229734	16971.805333	1869.248047	72.504387
19478.229734	16971.805333	1868.258789	-100.460075
19478.229734	16971.805333	1867.270508	144.856781
19478.229734	16971.805333	1866.282227	373.158112
19478.229734	16971.805333	1865.292969	127.729111
19478.229734	16971.805333	1864.303711	206.146103
19478.229734	16971.805333	1863.314453	137.171875
19478.229734	16971.805333	1862.324219	121.357208
19478.229734	16971.805333	1861.334961	71.728722
19478.229734	16971.805333	1860.344727	-144.470535
19478.229734	16971.805333	1859.354492	8.718582
19478.229734	16971.805333	1858.364258	137.707306
19478.229734	16971.805333	1857.374023	112.209549
19478.229734	16971.805333	1856.383789	139.783020
19478.229734	16971.805333	1855.392578	99.798721
19478.229734	16971.805333	1854.401367	88.756859
19478.229734	16971.805333	1853.410156	164.504181
19478.229734	16971.805333	1852.418945	20.836670
19478.229734	16971.805333	1851.426758	125.463142
19478.229734	16971.805333	1850.435547	352.926117
19478.229734	16971.805333	1849.443359	33.374611
19478.229734	16971.805333	1848.451172	-35.552402
19478.229734	16971.805333	1847.458984	47.253567
19478.229734	16971.805333	1846.466797	67.400993
19478.229734	16971.805333	1845.473633	217.530243
19478.229734	16971.805333	1844.480469	-22.364138
19478.229734	16971.805333	1843.487305	-16.718580
19478.229734	16971.805333	1842.494141	133.268768
19478.229734	16971.805333	1841.500977	-84.897079
19478.229734	16971.805333	1840.506836	93.859650
19478.229734	16971.805333	1839.513672	147.470703
19478.229734	16971.805333	1838.519531	292.402954
19478.229734	16971.805333	1837.525391	418.018341
19478.229734	16971.805333	1836.530273	171.029327
19478.229734	16971.805333	1835.536133	486.395203
19478.229734	16971.805333	1834.541016	301.889313
19478.229734	16971.805333	1833.545898	364.834656
19478.229734	16971.805333	1832.550781	165.945267
19478.229734	16971.805333	1831.555664	420.917603
19478.229734	16971.805333	1830.560547	243.627853
19478.229734	16971.805333	1829.564453	255.997208
19478.229734	16971.805333	1828.568359	-48.451881
19478.229734	16971.805333	1827.572266	340.590363
19478.229734	16971.805333	1826.576172	268.857544
19478.229734	16971.805333	1825.580078	209.106750
19478.229734	16971.805333	1824.583008	63.012917
19478.229734	16971.805333	1823.585938	499.538208
19478.229734	16971.805333	1822.588867	382.127197
19478.229734	16971.805333	1821.591797	362.982269
19478.229734	16971.805333	1820.594727	365.366425
19478.229734	16971.805333	1819.596680	204.798248
19478.229734	16971.805333	1818.599609	281.377106
19478.229734	16971.805333	1817.601563	302.804901
19478.229734	16971.805333	1816.603516	281.079254
19478.229734	16971.805333	1815.604492	335.925690
19478.229734	16971.805333	1814.606445	345.223236
19478.229734	16971.805333	1813.607422	208.499695
19478.229734	16971.805333	1812.608398	251.219711
19478.229734	16971.805333	1811.609375	439.796722
19478.229734	16971.805333	1810.610352	338.859039
19478.229734	16971.805333	1809.610352	276.172974
19478.229734	16971.805333	1808.611328	325.821350
19478.229734	16971.805333	1807.611328	-52.465466
19478.229734	16971.805333	1806.611328	-57.839626
19478.229734	16971.805333	1805.610352	3.640748
19478.229734	16971.805333	1804.610352	275.269928
19478.229734	16971.805333	1803.609375	350.887299
19478.229734	16971.805333	1802.608398	376.272552
19478.229734	16971.805333	1801.607422	270.274872
19478.229734	16971.805333	1800.606445	395.817566
19478.229734	16971.805333	1799.605469	108.355293
19478.229734	16971.805333	1798.603516	267.177307
19478.229734	16971.805333	1797.601563	153.901535
19478.229734	16971.805333	1796.599609	403.183838
19478.229734	16971.805333	1795.597656	423.363678
19478.229734	16971.805333	1794.595703	-116.866020
19478.229734	16971.805333	1793.592773	358.633423
19478.229734	16971.805333	1792.589844	402.472504
19478.229734	16971.805333	1791.587891	422.400635
19478.229734	16971.805333	1790.583984	442.267792
19478.229734	16971.805333	1789.581055	240.520233
19478.229734	16971.805333	1788.577148	272.202850
19478.229734	16971.805333	1787.574219	89.492897
19478.229734	16971.805333	1786.570313	40.120647
19478.229734	16971.805333	1785.566406	140.669754
19478.229734	16971.805333	1784.561523	-158.709824
19478.229734	16971.805333	1783.557617	241.530807
19478.229734	16971.805333	1782.552734	168.129288
19478.229734	16971.805333	1781.547852	268.329712
19478.229734	16971.805333	1780.542969	211.473694
19478.229734	16971.805333	1779.538086	211.641144
19478.229734	16971.805333	1778.532227	292.569611
19478.229734	16971.805333	1777.527344	361.521698
19478.229734	16971.805333	1776.521484	245.029327
19478.229734	16971.805333	1775.515625	316.212067
19478.229734	16971.805333	1774.508789	-68.774757
19478.229734	16971.805333	1773.502930	-52.312534
19478.229734	16971.805333	1772.496094	222.903671
19478.229734	16971.805333	1771.489258	329.392151
19478.229734	16971.805333	1770.482422	288.609894
19478.229734	16971.805333	1769.475586	-91.581833
19478.229734	16971.805333	1768.467773	-175.106064
19478.229734	16971.805333	1767.460938	180.207382
19478.229734	16971.805333	1766.453125	326.600281
19478.229734	16971.805333	1765.445313	382.761353
19478.229734	16971.805333	1764.437500	83.198364
19478.229734	16971.805333	1763.428711	395.265411
19478.229734	16971.805333	1762.420898	434.596283
19478.229734	16971.805333	1761.412109	395.652863
19478.229734	16971.805333	1760.403320	318.753143
19478.229734	16971.805333	1759.393555	270.243164
19478.229734	16971.805333	1758.384766	207.476013
19478.229734	16971.805333	1757.375000	61.797920
19478.229734	16971.805333	1756.366211	103.126709
19478.229734	16971.805333	1755.356445	435.499817
19478.229734	16971.805333	1754.345703	152.415283
19478.229734	16971.805333	1753.335938	13.699503
19478.229734	16971.805333	1752.325195	92.596649
19478.229734	16971.805333	1751.315430	273.099396
19478.229734	16971.805333	1750.304688	-0.536561
19478.229734	16971.805333	1749.292969	-2.252612
19478.229734	16971.805333	1748.282227	199.247086
19478.229734	16971.805333	1747.270508	46.118259
19478.229734	16971.805333	1746.259766	-62.122295
19478.229734	16971.805333	1745.248047	120.184845
19478.229734	16971.805333	1744.235352	85.065186
19478.229734	16971.805333	1743.223633	-68.175011
19478.229734	16971.805333	1742.211914	47.735462
19478.229734	16971.805333	1741.199219	-48.910934
19478.229734	16971.805333	1740.186523	-8.695157
19478.229734	16971.805333	1739.173828	184.820648
19478.229734	16971.805333	1738.160156	-39.375870
19478.229734	16971.805333	1737.147461	83.188324
19478.229734	16971.805333	1736.133789	337.710785
19478.229734	16971.805333	1735.120117	233.683151
19478.229734	16971.805333	1734.106445	96.631248
19478.229734	16971.805333	1733.091797	13.782727
19478.229734	16971.805333	1732.078125	-24.318447
19478.229734	16971.805333	1731.063477	-31.834589
19478.229734	16971.805333	1730.048828	-138.342072
19478.229734	16971.805333	1729.034180	-14.061144
19478.229734	16971.805333	1728.019531	86.567299
19478.229734	16971.805333	1727.003906	109.411285
19478.229734	16971.805333	1725.988281	-286.785004
19478.229734	16971.805333	1724.972656	-111.022972
19478.229734	16971.805333	1723.957031	-238.907578
19478.229734	16971.805333	1722.941406	77.815620
19478.229734	16971.805333	1721.924805	-10.180842
19478.229734	16971.805333	1720.909180	-69.976730
19478.229734	16971.805333	1719.892578	166.434525
19478.229734	16971.805333	1718.875977	57.156944
19478.229734	16971.805333	1717.858398	-103.836334
19478.229734	16971.805333	1716.841797	-76.837540
19478.229734	16971.805333	1715.824219	208.520889
19478.229734	16971.805333	1714.806641	141.392029
19478.229734	16971.805333	1713.789063	250.370255
19478.229734	16971.805333	1712.770508	-171.380066
19478.229734	16971.805333	1711.752930	223.913803
19478.229734	16971.805333	1710.734375	388.995972
19478.229734	16971.805333	1709.715820	150.351807
19478.229734	16971.805333	1708.697266	406.792542
19478.229734	16971.805333	1707.678711	-108.647957
19478.229734	16971.805333	1706.659180	-4.791827
19478.229734	16971.805333	1705.640625	-72.186096
19478.229734	16971.805333	1704.621094	134.686340
19478.229734	16971.805333	1703.600586	-117.970787
19478.229734	16971.805333	1702.581055	-91.698387
19478.229734	16971.805333	1701.561523	61.042683
19478.229734	16971.805333	1700.541016	26.279703
19478.229734	16971.805333	1699.520508	139.039536
19478.229734	16971.805333	1698.500000	50.336628
19478.229734	16971.805333	1697.478516	-19.643641
19478.229734	16971.805333	1696.458008	-101.338165
19478.229734	16971.805333	1695.436523	-180.699188
19478.229734	16971.805333	1694.415039	109.630447
19478.229734	16971.805333	1693.393555	-21.282064
19478.229734	16971.805333	1692.372070	27.923454
19478.229734	16971.805333	1691.349609	18.608032
19478.229734	16971.805333	1690.327148	207.998123
19478.229734	16971.805333	1689.304688	-301.659363
19478.229734	16971.805333	1688.282227	107.347343
19478.229734	16971.805333	1687.259766	-96.051254
19478.229734	16971.805333	1686.236328	-65.779388
19478.229734	16971.805333	1685.213867	-126.640411
19478.229734	16971.805333	1684.190430	39.020264
19478.229734	16971.805333	1683.166016	113.523735
19478.229734	16971.805333	1682.142578	143.619537
19478.229734	16971.805333	1681.119141	215.690063
19478.229734	16971.805333	1680.094727	31.014088
19478.229734	16971.805333	1679.070313	331.671936
19478.229734	16971.805333	1678.045898	88.680122
19478.229734	16971.805333	1677.020508	57.985344
19478.229734	16971.805333	1675.996094	491.306152
19478.229734	16971.805333	1674.970703	31.542944
19478.229734	16971.805333	1673.945313	98.711670
19478.229734	16971.805333	1672.919922	49.315186
19478.229734	16971.805333	1671.893555	79.136086
19478.229734	16971.805333	1670.868164	-12.204543
19478.229734	16971.805333	1669.841797	504.355621
19478.229734	16971.805333	1668.815430	652.779968
19478.229734	16971.805333	1667.789063	426.295898
19478.229734	16971.805333	1666.761719	132.381317
19478.229734	16971.805333	1665.735352	176.022705
19478.229734	16971.805333	1664.708008	266.168976
19478.229734	16971.805333	1663.680664	381.857758
19478.229734	16971.805333	1662.653320	383.523621
19478.229734	16971.805333	1661.625000	327.036926
19478.229734	16971.805333	1660.597656	584.446777
19478.229734	16971.805333	1659.569336	507.008667
19478.229734	16971.805333	1658.541016	531.854004
19478.229734	16971.805333	1657.512695	382.409576
19478.229734	16971.805333	1656.483398	518.770386
19478.229734	16971.805333	1655.455078	594.686646
19478.229734	16971.805333	1654.425781	473.169708
19478.229734	16971.805333	1653.396484	330.800354
19478.229734	16971.805333	1652.366211	406.696991
19478.229734	16971.805333	1651.336914	833.033691
19478.229734	16971.805333	1650.306641	648.905884
19478.229734	16971.805333	1649.276367	413.808258
19478.229734	16971.805333	1648.246094	447.882416
19478.229734	16971.805333	1647.215820	832.142944
19478.229734	16971.805333	1646.185547	717.731384
19478.229734	16971.805333	1645.154297	867.651062
19478.229734	16971.805333	1644.123047	642.031433
19478.229734	16971.805333	1643.091797	676.053101
19478.229734	16971.805333	1642.060547	967.248291
19478.229734	16971.805333	1641.028320	883.067566
19478.229734	16971.805333	1639.997070	863.782532
19478.229734	16971.805333	1638.964844	930.187988
19478.229734	16971.805333	1637.931641	1061.401978
19478.229734	16971.805333	1636.899414	1181.008667
19478.229734	16971.805333	1635.867188	944.188965
19478.229734	16971.805333	1634.833984	867.124084
19478.229734	16971.805333	1633.800781	1033.007813
19478.229734	16971.805333	1632.767578	1159.522827
19478.229734	16971.805333	1631.734375	1170.386719
19478.229734	16971.805333	1630.700195	1111.899780
19478.229734	16971.805333	1629.666016	1136.671997
19478.229734	16971.805333	1628.631836	791.678650
19478.229734	16971.805333	1627.597656	939.010620
19478.229734	16971.805333	1626.563477	963.868042
19478.229734	16971.805333	1625.528320	979.496704
19478.229734	16971.805333	1624.493164	1166.031494
19478.229734	16971.805333	1623.458008	990.028198
19478.229734	16971.805333	1622.422852	795.653564
19478.229734	16971.805333	1621.387695	668.312927
19478.229734	16971.805333	1620.351563	988.703247
19478.229734	16971.805333	1619.315430	1027.535522
19478.229734	16971.805333	1618.279297	741.152649
19478.229734	16971.805333	1617.243164	754.711609
19478.229734	16971.805333	1616.207031	888.195679
19478.229734	16971.805333	1615.169922	867.202576
19478.229734	16971.805333	1614.132813	793.241882
19478.229734	16971.805333	1613.095703	733.171997
19478.229734	16971.805333	1612.058594	979.581543
19478.229734	16971.805333	1611.020508	935.689514
19478.229734	16971.805333	1609.983398	765.189636
19478.229734	16971.805333	1608.945313	772.091125
19478.229734	16971.805333	1607.907227	675.430664
19478.229734	16971.805333	1606.868164	974.735901
19478.229734	16971.805333	1605.830078	500.753052
19478.229734	16971.805333	1604.791016	659.710266
19478.229734	16971.805333	1603.751953	848.550476
19478.229734	16971.805333	1602.712891	1000.563477
19478.229734	16971.805333	1601.673828	1012.296997
19478.229734	16971.805333	1600.633789	745.890198
19478.229734	16971.805333	1599.594727	700.293884
19478.229734	16971.805333	1598.554688	955.810852
19478.229734	16971.805333	1597.513672	1059.629517
19478.229734	16971.805333	1596.473633	1014.140015
19478.229734	16971.805333	1595.433594	858.473572
19478.229734	16971.805333	1594.392578	1192.027344
19478.229734	16971.805333	1593.351563	1275.253662
19478.229734	16971.805333	1592.310547	968.283875
