#X		#Y		#Wave		#Intensity
19416.225851	16899.251500	2000.043945	-160.255798
19416.225851	16899.251500	1999.080078	140.907471
19416.225851	16899.251500	1998.116211	20.973816
19416.225851	16899.251500	1997.151367	74.322090
19416.225851	16899.251500	1996.186523	-358.219177
19416.225851	16899.251500	1995.222656	-322.652557
19416.225851	16899.251500	1994.256836	210.530746
19416.225851	16899.251500	1993.291992	27.622950
19416.225851	16899.251500	1992.327148	250.607346
19416.225851	16899.251500	1991.361328	37.638149
19416.225851	16899.251500	1990.395508	121.529091
19416.225851	16899.251500	1989.429688	39.399002
19416.225851	16899.251500	1988.463867	117.913460
19416.225851	16899.251500	1987.497070	164.065308
19416.225851	16899.251500	1986.531250	271.825958
19416.225851	16899.251500	1985.564453	-110.203476
19416.225851	16899.251500	1984.597656	-126.388306
19416.225851	16899.251500	1983.630859	12.979564
19416.225851	16899.251500	1982.664063	110.119843
19416.225851	16899.251500	1981.696289	16.820635
19416.225851	16899.251500	1980.728516	37.033432
19416.225851	16899.251500	1979.761719	-86.180328
19416.225851	16899.251500	1978.792969	398.005554
19416.225851	16899.251500	1977.825195	74.500366
19416.225851	16899.251500	1976.857422	106.439117
19416.225851	16899.251500	1975.888672	-32.051666
19416.225851	16899.251500	1974.919922	-20.102091
19416.225851	16899.251500	1973.951172	82.998955
19416.225851	16899.251500	1972.982422	18.200794
19416.225851	16899.251500	1972.013672	175.269058
19416.225851	16899.251500	1971.043945	-175.776230
19416.225851	16899.251500	1970.075195	67.325272
19416.225851	16899.251500	1969.105469	-89.070190
19416.225851	16899.251500	1968.135742	8.321675
19416.225851	16899.251500	1967.165039	278.055328
19416.225851	16899.251500	1966.195313	286.454132
19416.225851	16899.251500	1965.224609	-3.263490
19416.225851	16899.251500	1964.253906	467.964233
19416.225851	16899.251500	1963.283203	266.773315
19416.225851	16899.251500	1962.312500	309.272400
19416.225851	16899.251500	1961.341797	100.636467
19416.225851	16899.251500	1960.370117	51.946144
19416.225851	16899.251500	1959.399414	79.463104
19416.225851	16899.251500	1958.427734	3.587595
19416.225851	16899.251500	1957.455078	55.560490
19416.225851	16899.251500	1956.483398	564.796082
19416.225851	16899.251500	1955.511719	395.245544
19416.225851	16899.251500	1954.539063	46.266098
19416.225851	16899.251500	1953.566406	230.642334
19416.225851	16899.251500	1952.593750	591.798584
19416.225851	16899.251500	1951.621094	414.760742
19416.225851	16899.251500	1950.647461	299.151093
19416.225851	16899.251500	1949.674805	-155.365646
19416.225851	16899.251500	1948.701172	-49.957588
19416.225851	16899.251500	1947.727539	99.546593
19416.225851	16899.251500	1946.753906	-133.925217
19416.225851	16899.251500	1945.780273	329.547028
19416.225851	16899.251500	1944.805664	257.967834
19416.225851	16899.251500	1943.831055	358.082611
19416.225851	16899.251500	1942.856445	222.678482
19416.225851	16899.251500	1941.881836	141.237717
19416.225851	16899.251500	1940.907227	25.469149
19416.225851	16899.251500	1939.932617	44.522938
19416.225851	16899.251500	1938.957031	210.586624
19416.225851	16899.251500	1937.981445	369.206390
19416.225851	16899.251500	1937.005859	140.676773
19416.225851	16899.251500	1936.030273	115.499290
19416.225851	16899.251500	1935.054688	207.851212
19416.225851	16899.251500	1934.078125	520.509521
19416.225851	16899.251500	1933.101563	397.293793
19416.225851	16899.251500	1932.125000	203.123230
19416.225851	16899.251500	1931.148438	-260.164886
19416.225851	16899.251500	1930.171875	223.524414
19416.225851	16899.251500	1929.194336	413.491241
19416.225851	16899.251500	1928.217773	251.185806
19416.225851	16899.251500	1927.240234	191.632767
19416.225851	16899.251500	1926.262695	151.643646
19416.225851	16899.251500	1925.284180	-20.325397
19416.225851	16899.251500	1924.306641	250.081985
19416.225851	16899.251500	1923.328125	254.058197
19416.225851	16899.251500	1922.350586	155.412704
19416.225851	16899.251500	1921.372070	-133.709122
19416.225851	16899.251500	1920.392578	129.166199
19416.225851	16899.251500	1919.414063	-196.483978
19416.225851	16899.251500	1918.434570	-43.561314
19416.225851	16899.251500	1917.456055	333.837311
19416.225851	16899.251500	1916.476563	69.321869
19416.225851	16899.251500	1915.497070	83.031693
19416.225851	16899.251500	1914.516602	77.223183
19416.225851	16899.251500	1913.537109	61.650913
19416.225851	16899.251500	1912.556641	311.869995
19416.225851	16899.251500	1911.576172	232.875076
19416.225851	16899.251500	1910.595703	95.404953
19416.225851	16899.251500	1909.615234	-90.750916
19416.225851	16899.251500	1908.633789	-55.109772
19416.225851	16899.251500	1907.653320	-314.257050
19416.225851	16899.251500	1906.671875	11.252754
19416.225851	16899.251500	1905.690430	54.156349
19416.225851	16899.251500	1904.708984	-80.686623
19416.225851	16899.251500	1903.727539	135.052231
19416.225851	16899.251500	1902.745117	443.203094
19416.225851	16899.251500	1901.762695	-153.973953
19416.225851	16899.251500	1900.780273	-86.740486
19416.225851	16899.251500	1899.797852	-51.154972
19416.225851	16899.251500	1898.815430	329.763184
19416.225851	16899.251500	1897.832031	-228.030930
19416.225851	16899.251500	1896.849609	374.009766
19416.225851	16899.251500	1895.866211	302.545319
19416.225851	16899.251500	1894.882813	158.202789
19416.225851	16899.251500	1893.898438	-3.090183
19416.225851	16899.251500	1892.915039	-161.895996
19416.225851	16899.251500	1891.930664	-211.335922
19416.225851	16899.251500	1890.947266	30.636969
19416.225851	16899.251500	1889.962891	49.163071
19416.225851	16899.251500	1888.977539	91.961021
19416.225851	16899.251500	1887.993164	-214.754349
19416.225851	16899.251500	1887.007813	165.368240
19416.225851	16899.251500	1886.023438	-24.788458
19416.225851	16899.251500	1885.038086	-110.568497
19416.225851	16899.251500	1884.051758	240.223206
19416.225851	16899.251500	1883.066406	91.383438
19416.225851	16899.251500	1882.081055	168.058350
19416.225851	16899.251500	1881.094727	-31.609783
19416.225851	16899.251500	1880.108398	-97.920029
19416.225851	16899.251500	1879.122070	36.900764
19416.225851	16899.251500	1878.135742	-167.479752
19416.225851	16899.251500	1877.148438	-83.560028
19416.225851	16899.251500	1876.162109	215.835526
19416.225851	16899.251500	1875.174805	156.800156
19416.225851	16899.251500	1874.187500	211.558167
19416.225851	16899.251500	1873.199219	65.415733
19416.225851	16899.251500	1872.211914	-167.787521
19416.225851	16899.251500	1871.223633	32.147026
19416.225851	16899.251500	1870.236328	-106.640221
19416.225851	16899.251500	1869.248047	-349.364746
19416.225851	16899.251500	1868.258789	-205.132462
19416.225851	16899.251500	1867.270508	-162.498306
19416.225851	16899.251500	1866.282227	37.222713
19416.225851	16899.251500	1865.292969	384.274109
19416.225851	16899.251500	1864.303711	233.470016
19416.225851	16899.251500	1863.314453	131.024734
19416.225851	16899.251500	1862.324219	21.373178
19416.225851	16899.251500	1861.334961	-1.324697
19416.225851	16899.251500	1860.344727	161.883377
19416.225851	16899.251500	1859.354492	-34.641613
19416.225851	16899.251500	1858.364258	403.619324
19416.225851	16899.251500	1857.374023	151.603119
19416.225851	16899.251500	1856.383789	-146.171204
19416.225851	16899.251500	1855.392578	-84.444672
19416.225851	16899.251500	1854.401367	-63.750843
19416.225851	16899.251500	1853.410156	169.101135
19416.225851	16899.251500	1852.418945	69.177094
19416.225851	16899.251500	1851.426758	391.071869
19416.225851	16899.251500	1850.435547	409.191711
19416.225851	16899.251500	1849.443359	138.176086
19416.225851	16899.251500	1848.451172	199.671158
19416.225851	16899.251500	1847.458984	44.367748
19416.225851	16899.251500	1846.466797	462.198853
19416.225851	16899.251500	1845.473633	157.606888
19416.225851	16899.251500	1844.480469	-154.109604
19416.225851	16899.251500	1843.487305	-71.044960
19416.225851	16899.251500	1842.494141	418.604919
19416.225851	16899.251500	1841.500977	181.530823
19416.225851	16899.251500	1840.506836	105.682838
19416.225851	16899.251500	1839.513672	-116.856636
19416.225851	16899.251500	1838.519531	247.328735
19416.225851	16899.251500	1837.525391	385.385345
19416.225851	16899.251500	1836.530273	-99.115730
19416.225851	16899.251500	1835.536133	67.744003
19416.225851	16899.251500	1834.541016	-17.744276
19416.225851	16899.251500	1833.545898	-88.816917
19416.225851	16899.251500	1832.550781	56.259853
19416.225851	16899.251500	1831.555664	59.583092
19416.225851	16899.251500	1830.560547	293.351410
19416.225851	16899.251500	1829.564453	-166.672867
19416.225851	16899.251500	1828.568359	275.777924
19416.225851	16899.251500	1827.572266	780.414124
19416.225851	16899.251500	1826.576172	375.649261
19416.225851	16899.251500	1825.580078	165.275665
19416.225851	16899.251500	1824.583008	29.293798
19416.225851	16899.251500	1823.585938	-41.934746
19416.225851	16899.251500	1822.588867	121.749619
19416.225851	16899.251500	1821.591797	364.424438
19416.225851	16899.251500	1820.594727	-214.918686
19416.225851	16899.251500	1819.596680	-288.572388
19416.225851	16899.251500	1818.599609	653.367188
19416.225851	16899.251500	1817.601563	318.471588
19416.225851	16899.251500	1816.603516	26.762737
19416.225851	16899.251500	1815.604492	266.584625
19416.225851	16899.251500	1814.606445	733.657837
19416.225851	16899.251500	1813.607422	535.256653
19416.225851	16899.251500	1812.608398	71.317421
19416.225851	16899.251500	1811.609375	234.249680
19416.225851	16899.251500	1810.610352	126.822456
19416.225851	16899.251500	1809.610352	174.828720
19416.225851	16899.251500	1808.611328	375.782532
19416.225851	16899.251500	1807.611328	77.047607
19416.225851	16899.251500	1806.611328	535.970642
19416.225851	16899.251500	1805.610352	-70.999306
19416.225851	16899.251500	1804.610352	96.242012
19416.225851	16899.251500	1803.609375	270.542419
19416.225851	16899.251500	1802.608398	60.256588
19416.225851	16899.251500	1801.607422	14.751222
19416.225851	16899.251500	1800.606445	81.412590
19416.225851	16899.251500	1799.605469	427.251984
19416.225851	16899.251500	1798.603516	228.850983
19416.225851	16899.251500	1797.601563	214.185638
19416.225851	16899.251500	1796.599609	359.298492
19416.225851	16899.251500	1795.597656	251.505493
19416.225851	16899.251500	1794.595703	-63.736702
19416.225851	16899.251500	1793.592773	314.836945
19416.225851	16899.251500	1792.589844	314.237854
19416.225851	16899.251500	1791.587891	177.747147
19416.225851	16899.251500	1790.583984	-135.046509
19416.225851	16899.251500	1789.581055	-190.502029
19416.225851	16899.251500	1788.577148	144.625610
19416.225851	16899.251500	1787.574219	562.915039
19416.225851	16899.251500	1786.570313	450.071960
19416.225851	16899.251500	1785.566406	430.057465
19416.225851	16899.251500	1784.561523	588.495605
19416.225851	16899.251500	1783.557617	454.145111
19416.225851	16899.251500	1782.552734	526.770020
19416.225851	16899.251500	1781.547852	301.991638
19416.225851	16899.251500	1780.542969	-32.151115
19416.225851	16899.251500	1779.538086	114.075806
19416.225851	16899.251500	1778.532227	184.124344
19416.225851	16899.251500	1777.527344	166.148392
19416.225851	16899.251500	1776.521484	554.477844
19416.225851	16899.251500	1775.515625	643.246216
19416.225851	16899.251500	1774.508789	199.834991
19416.225851	16899.251500	1773.502930	-65.343735
19416.225851	16899.251500	1772.496094	358.137268
19416.225851	16899.251500	1771.489258	555.868713
19416.225851	16899.251500	1770.482422	150.565384
19416.225851	16899.251500	1769.475586	590.211365
19416.225851	16899.251500	1768.467773	358.156738
19416.225851	16899.251500	1767.460938	237.626755
19416.225851	16899.251500	1766.453125	340.040253
19416.225851	16899.251500	1765.445313	183.878998
19416.225851	16899.251500	1764.437500	267.185883
19416.225851	16899.251500	1763.428711	348.033264
19416.225851	16899.251500	1762.420898	177.569000
19416.225851	16899.251500	1761.412109	319.894989
19416.225851	16899.251500	1760.403320	208.618317
19416.225851	16899.251500	1759.393555	379.197968
19416.225851	16899.251500	1758.384766	125.743141
19416.225851	16899.251500	1757.375000	279.585846
19416.225851	16899.251500	1756.366211	-66.191811
19416.225851	16899.251500	1755.356445	-85.269745
19416.225851	16899.251500	1754.345703	92.019844
19416.225851	16899.251500	1753.335938	-47.861652
19416.225851	16899.251500	1752.325195	363.421173
19416.225851	16899.251500	1751.315430	301.478363
19416.225851	16899.251500	1750.304688	369.551422
19416.225851	16899.251500	1749.292969	250.776947
19416.225851	16899.251500	1748.282227	-97.289345
19416.225851	16899.251500	1747.270508	384.218719
19416.225851	16899.251500	1746.259766	255.884491
19416.225851	16899.251500	1745.248047	536.230164
19416.225851	16899.251500	1744.235352	32.259613
19416.225851	16899.251500	1743.223633	-155.142715
19416.225851	16899.251500	1742.211914	35.227665
19416.225851	16899.251500	1741.199219	-20.026539
19416.225851	16899.251500	1740.186523	61.570278
19416.225851	16899.251500	1739.173828	-97.606720
19416.225851	16899.251500	1738.160156	-167.130722
19416.225851	16899.251500	1737.147461	-151.768906
19416.225851	16899.251500	1736.133789	49.836033
19416.225851	16899.251500	1735.120117	100.406113
19416.225851	16899.251500	1734.106445	14.172031
19416.225851	16899.251500	1733.091797	-131.006027
19416.225851	16899.251500	1732.078125	192.753799
19416.225851	16899.251500	1731.063477	285.445038
19416.225851	16899.251500	1730.048828	173.106445
19416.225851	16899.251500	1729.034180	176.156281
19416.225851	16899.251500	1728.019531	-6.866107
19416.225851	16899.251500	1727.003906	-20.370304
19416.225851	16899.251500	1725.988281	-5.676685
19416.225851	16899.251500	1724.972656	1.894757
19416.225851	16899.251500	1723.957031	218.817017
19416.225851	16899.251500	1722.941406	-288.948639
19416.225851	16899.251500	1721.924805	14.867727
19416.225851	16899.251500	1720.909180	-346.975830
19416.225851	16899.251500	1719.892578	-50.424232
19416.225851	16899.251500	1718.875977	-339.352112
19416.225851	16899.251500	1717.858398	-85.325676
19416.225851	16899.251500	1716.841797	126.261269
19416.225851	16899.251500	1715.824219	-367.079529
19416.225851	16899.251500	1714.806641	-310.648254
19416.225851	16899.251500	1713.789063	194.254745
19416.225851	16899.251500	1712.770508	100.188126
19416.225851	16899.251500	1711.752930	191.559341
19416.225851	16899.251500	1710.734375	172.535980
19416.225851	16899.251500	1709.715820	-128.119354
19416.225851	16899.251500	1708.697266	-102.597572
19416.225851	16899.251500	1707.678711	274.726837
19416.225851	16899.251500	1706.659180	103.068527
19416.225851	16899.251500	1705.640625	-61.535519
19416.225851	16899.251500	1704.621094	-141.726761
19416.225851	16899.251500	1703.600586	-107.082901
19416.225851	16899.251500	1702.581055	243.866867
19416.225851	16899.251500	1701.561523	-382.389343
19416.225851	16899.251500	1700.541016	-36.293304
19416.225851	16899.251500	1699.520508	157.386887
19416.225851	16899.251500	1698.500000	161.276810
19416.225851	16899.251500	1697.478516	122.981514
19416.225851	16899.251500	1696.458008	307.034821
19416.225851	16899.251500	1695.436523	-68.361549
19416.225851	16899.251500	1694.415039	335.516663
19416.225851	16899.251500	1693.393555	353.197449
19416.225851	16899.251500	1692.372070	132.259537
19416.225851	16899.251500	1691.349609	-27.828844
19416.225851	16899.251500	1690.327148	92.668465
19416.225851	16899.251500	1689.304688	-39.380672
19416.225851	16899.251500	1688.282227	130.079102
19416.225851	16899.251500	1687.259766	49.411758
19416.225851	16899.251500	1686.236328	214.042374
19416.225851	16899.251500	1685.213867	39.884560
19416.225851	16899.251500	1684.190430	-24.477850
19416.225851	16899.251500	1683.166016	100.276085
19416.225851	16899.251500	1682.142578	98.888298
19416.225851	16899.251500	1681.119141	272.518219
19416.225851	16899.251500	1680.094727	338.708008
19416.225851	16899.251500	1679.070313	89.870079
19416.225851	16899.251500	1678.045898	225.985641
19416.225851	16899.251500	1677.020508	37.842892
19416.225851	16899.251500	1675.996094	362.730988
19416.225851	16899.251500	1674.970703	507.956024
19416.225851	16899.251500	1673.945313	-22.854563
19416.225851	16899.251500	1672.919922	287.796082
19416.225851	16899.251500	1671.893555	95.024193
19416.225851	16899.251500	1670.868164	254.060623
19416.225851	16899.251500	1669.841797	650.574524
19416.225851	16899.251500	1668.815430	308.740417
19416.225851	16899.251500	1667.789063	272.008240
19416.225851	16899.251500	1666.761719	102.584084
19416.225851	16899.251500	1665.735352	184.554443
19416.225851	16899.251500	1664.708008	275.775879
19416.225851	16899.251500	1663.680664	518.161194
19416.225851	16899.251500	1662.653320	330.137024
19416.225851	16899.251500	1661.625000	844.456238
19416.225851	16899.251500	1660.597656	777.311096
19416.225851	16899.251500	1659.569336	652.053955
19416.225851	16899.251500	1658.541016	473.383026
19416.225851	16899.251500	1657.512695	534.099915
19416.225851	16899.251500	1656.483398	406.598114
19416.225851	16899.251500	1655.455078	539.288635
19416.225851	16899.251500	1654.425781	332.852142
19416.225851	16899.251500	1653.396484	470.127319
19416.225851	16899.251500	1652.366211	242.870987
19416.225851	16899.251500	1651.336914	872.134827
19416.225851	16899.251500	1650.306641	361.771332
19416.225851	16899.251500	1649.276367	257.607574
19416.225851	16899.251500	1648.246094	691.636658
19416.225851	16899.251500	1647.215820	997.933777
19416.225851	16899.251500	1646.185547	861.234192
19416.225851	16899.251500	1645.154297	757.036926
19416.225851	16899.251500	1644.123047	1213.790161
19416.225851	16899.251500	1643.091797	894.045593
19416.225851	16899.251500	1642.060547	618.444885
19416.225851	16899.251500	1641.028320	898.908813
19416.225851	16899.251500	1639.997070	866.602539
19416.225851	16899.251500	1638.964844	806.519043
19416.225851	16899.251500	1637.931641	1005.760986
19416.225851	16899.251500	1636.899414	1218.817505
19416.225851	16899.251500	1635.867188	1091.601929
19416.225851	16899.251500	1634.833984	1096.327759
19416.225851	16899.251500	1633.800781	730.924011
19416.225851	16899.251500	1632.767578	684.852417
19416.225851	16899.251500	1631.734375	754.426575
19416.225851	16899.251500	1630.700195	606.657227
19416.225851	16899.251500	1629.666016	849.609802
19416.225851	16899.251500	1628.631836	900.656372
19416.225851	16899.251500	1627.597656	912.419067
19416.225851	16899.251500	1626.563477	1379.297241
19416.225851	16899.251500	1625.528320	1524.954102
19416.225851	16899.251500	1624.493164	818.439453
19416.225851	16899.251500	1623.458008	1215.848022
19416.225851	16899.251500	1622.422852	1190.680786
19416.225851	16899.251500	1621.387695	1670.989502
19416.225851	16899.251500	1620.351563	1207.355591
19416.225851	16899.251500	1619.315430	1242.250366
19416.225851	16899.251500	1618.279297	1512.425049
19416.225851	16899.251500	1617.243164	1372.025024
19416.225851	16899.251500	1616.207031	1081.832642
19416.225851	16899.251500	1615.169922	1494.882324
19416.225851	16899.251500	1614.132813	1195.606445
19416.225851	16899.251500	1613.095703	1302.049072
19416.225851	16899.251500	1612.058594	1141.218994
19416.225851	16899.251500	1611.020508	1058.799316
19416.225851	16899.251500	1609.983398	1395.598633
19416.225851	16899.251500	1608.945313	1499.732300
19416.225851	16899.251500	1607.907227	1237.819946
19416.225851	16899.251500	1606.868164	1583.685425
19416.225851	16899.251500	1605.830078	1303.520020
19416.225851	16899.251500	1604.791016	1039.603271
19416.225851	16899.251500	1603.751953	1716.660156
19416.225851	16899.251500	1602.712891	1687.430054
19416.225851	16899.251500	1601.673828	1993.964722
19416.225851	16899.251500	1600.633789	1498.072510
19416.225851	16899.251500	1599.594727	1570.159180
19416.225851	16899.251500	1598.554688	1922.617920
19416.225851	16899.251500	1597.513672	1220.371826
19416.225851	16899.251500	1596.473633	1223.677734
19416.225851	16899.251500	1595.433594	1530.199829
19416.225851	16899.251500	1594.392578	1671.312988
19416.225851	16899.251500	1593.351563	1380.800537
