#X		#Y		#Wave		#Intensity
19486.183085	16964.215500	2000.043945	276.902802
19486.183085	16964.215500	1999.080078	-142.410141
19486.183085	16964.215500	1998.116211	51.978905
19486.183085	16964.215500	1997.151367	-192.562103
19486.183085	16964.215500	1996.186523	164.839478
19486.183085	16964.215500	1995.222656	150.289581
19486.183085	16964.215500	1994.256836	-131.946426
19486.183085	16964.215500	1993.291992	360.786377
19486.183085	16964.215500	1992.327148	50.948818
19486.183085	16964.215500	1991.361328	238.586746
19486.183085	16964.215500	1990.395508	74.513161
19486.183085	16964.215500	1989.429688	-171.353165
19486.183085	16964.215500	1988.463867	23.058832
19486.183085	16964.215500	1987.497070	736.666931
19486.183085	16964.215500	1986.531250	218.215378
19486.183085	16964.215500	1985.564453	347.620819
19486.183085	16964.215500	1984.597656	118.335686
19486.183085	16964.215500	1983.630859	207.819321
19486.183085	16964.215500	1982.664063	-58.756092
19486.183085	16964.215500	1981.696289	-75.837502
19486.183085	16964.215500	1980.728516	0.803343
19486.183085	16964.215500	1979.761719	-31.417252
19486.183085	16964.215500	1978.792969	432.591919
19486.183085	16964.215500	1977.825195	108.675171
19486.183085	16964.215500	1976.857422	288.312653
19486.183085	16964.215500	1975.888672	193.796356
19486.183085	16964.215500	1974.919922	44.894138
19486.183085	16964.215500	1973.951172	-136.157990
19486.183085	16964.215500	1972.982422	287.067322
19486.183085	16964.215500	1972.013672	76.190773
19486.183085	16964.215500	1971.043945	380.620544
19486.183085	16964.215500	1970.075195	90.675240
19486.183085	16964.215500	1969.105469	266.585632
19486.183085	16964.215500	1968.135742	287.061462
19486.183085	16964.215500	1967.165039	1.896997
19486.183085	16964.215500	1966.195313	182.327484
19486.183085	16964.215500	1965.224609	200.031815
19486.183085	16964.215500	1964.253906	111.739479
19486.183085	16964.215500	1963.283203	-28.320028
19486.183085	16964.215500	1962.312500	508.531952
19486.183085	16964.215500	1961.341797	439.640045
19486.183085	16964.215500	1960.370117	230.426346
19486.183085	16964.215500	1959.399414	328.736481
19486.183085	16964.215500	1958.427734	220.304214
19486.183085	16964.215500	1957.455078	-89.830933
19486.183085	16964.215500	1956.483398	109.059799
19486.183085	16964.215500	1955.511719	329.927368
19486.183085	16964.215500	1954.539063	-73.687767
19486.183085	16964.215500	1953.566406	427.149353
19486.183085	16964.215500	1952.593750	207.808258
19486.183085	16964.215500	1951.621094	170.269791
19486.183085	16964.215500	1950.647461	245.669647
19486.183085	16964.215500	1949.674805	259.582947
19486.183085	16964.215500	1948.701172	224.329422
19486.183085	16964.215500	1947.727539	142.391068
19486.183085	16964.215500	1946.753906	102.150795
19486.183085	16964.215500	1945.780273	120.762985
19486.183085	16964.215500	1944.805664	-12.791592
19486.183085	16964.215500	1943.831055	243.674164
19486.183085	16964.215500	1942.856445	60.996143
19486.183085	16964.215500	1941.881836	172.588303
19486.183085	16964.215500	1940.907227	291.446564
19486.183085	16964.215500	1939.932617	-94.714363
19486.183085	16964.215500	1938.957031	-198.943573
19486.183085	16964.215500	1937.981445	-36.098827
19486.183085	16964.215500	1937.005859	369.175018
19486.183085	16964.215500	1936.030273	83.555374
19486.183085	16964.215500	1935.054688	111.461746
19486.183085	16964.215500	1934.078125	403.752930
19486.183085	16964.215500	1933.101563	380.118011
19486.183085	16964.215500	1932.125000	75.001793
19486.183085	16964.215500	1931.148438	92.976006
19486.183085	16964.215500	1930.171875	106.024452
19486.183085	16964.215500	1929.194336	189.980194
19486.183085	16964.215500	1928.217773	-90.524010
19486.183085	16964.215500	1927.240234	93.641357
19486.183085	16964.215500	1926.262695	385.286438
19486.183085	16964.215500	1925.284180	202.609329
19486.183085	16964.215500	1924.306641	173.938126
19486.183085	16964.215500	1923.328125	164.810242
19486.183085	16964.215500	1922.350586	209.409302
19486.183085	16964.215500	1921.372070	166.046005
19486.183085	16964.215500	1920.392578	98.266289
19486.183085	16964.215500	1919.414063	-47.634933
19486.183085	16964.215500	1918.434570	-115.380318
19486.183085	16964.215500	1917.456055	200.069199
19486.183085	16964.215500	1916.476563	364.096313
19486.183085	16964.215500	1915.497070	15.708303
19486.183085	16964.215500	1914.516602	-73.996902
19486.183085	16964.215500	1913.537109	-0.277124
19486.183085	16964.215500	1912.556641	-58.265491
19486.183085	16964.215500	1911.576172	-113.800514
19486.183085	16964.215500	1910.595703	-49.887306
19486.183085	16964.215500	1909.615234	-151.720459
19486.183085	16964.215500	1908.633789	4.752867
19486.183085	16964.215500	1907.653320	85.643898
19486.183085	16964.215500	1906.671875	200.600525
19486.183085	16964.215500	1905.690430	79.295830
19486.183085	16964.215500	1904.708984	-100.400436
19486.183085	16964.215500	1903.727539	221.430252
19486.183085	16964.215500	1902.745117	-62.882072
19486.183085	16964.215500	1901.762695	47.114880
19486.183085	16964.215500	1900.780273	40.288803
19486.183085	16964.215500	1899.797852	145.358932
19486.183085	16964.215500	1898.815430	376.853058
19486.183085	16964.215500	1897.832031	39.280788
19486.183085	16964.215500	1896.849609	-98.817192
19486.183085	16964.215500	1895.866211	74.259476
19486.183085	16964.215500	1894.882813	193.810593
19486.183085	16964.215500	1893.898438	-138.611343
19486.183085	16964.215500	1892.915039	-60.358315
19486.183085	16964.215500	1891.930664	185.455521
19486.183085	16964.215500	1890.947266	142.204697
19486.183085	16964.215500	1889.962891	329.624634
19486.183085	16964.215500	1888.977539	24.205809
19486.183085	16964.215500	1887.993164	-57.812038
19486.183085	16964.215500	1887.007813	-45.160339
19486.183085	16964.215500	1886.023438	-54.343575
19486.183085	16964.215500	1885.038086	23.803297
19486.183085	16964.215500	1884.051758	-70.260544
19486.183085	16964.215500	1883.066406	-118.217400
19486.183085	16964.215500	1882.081055	22.944025
19486.183085	16964.215500	1881.094727	193.143219
19486.183085	16964.215500	1880.108398	263.925781
19486.183085	16964.215500	1879.122070	39.090668
19486.183085	16964.215500	1878.135742	-23.350361
19486.183085	16964.215500	1877.148438	32.916706
19486.183085	16964.215500	1876.162109	11.676190
19486.183085	16964.215500	1875.174805	334.247406
19486.183085	16964.215500	1874.187500	126.580093
19486.183085	16964.215500	1873.199219	6.124975
19486.183085	16964.215500	1872.211914	139.793213
19486.183085	16964.215500	1871.223633	-58.027531
19486.183085	16964.215500	1870.236328	12.722313
19486.183085	16964.215500	1869.248047	-107.600853
19486.183085	16964.215500	1868.258789	26.010752
19486.183085	16964.215500	1867.270508	-268.316956
19486.183085	16964.215500	1866.282227	111.819786
19486.183085	16964.215500	1865.292969	114.834473
19486.183085	16964.215500	1864.303711	100.942360
19486.183085	16964.215500	1863.314453	-65.128136
19486.183085	16964.215500	1862.324219	58.694691
19486.183085	16964.215500	1861.334961	300.796387
19486.183085	16964.215500	1860.344727	105.826370
19486.183085	16964.215500	1859.354492	-6.996340
19486.183085	16964.215500	1858.364258	-155.972641
19486.183085	16964.215500	1857.374023	336.953949
19486.183085	16964.215500	1856.383789	89.064537
19486.183085	16964.215500	1855.392578	-6.768426
19486.183085	16964.215500	1854.401367	133.773682
19486.183085	16964.215500	1853.410156	305.610596
19486.183085	16964.215500	1852.418945	31.410133
19486.183085	16964.215500	1851.426758	-129.400604
19486.183085	16964.215500	1850.435547	88.182907
19486.183085	16964.215500	1849.443359	26.208494
19486.183085	16964.215500	1848.451172	94.338455
19486.183085	16964.215500	1847.458984	294.908508
19486.183085	16964.215500	1846.466797	362.965332
19486.183085	16964.215500	1845.473633	134.879364
19486.183085	16964.215500	1844.480469	340.148834
19486.183085	16964.215500	1843.487305	104.933662
19486.183085	16964.215500	1842.494141	197.044144
19486.183085	16964.215500	1841.500977	-23.617613
19486.183085	16964.215500	1840.506836	85.320793
19486.183085	16964.215500	1839.513672	148.527847
19486.183085	16964.215500	1838.519531	28.983000
19486.183085	16964.215500	1837.525391	334.971527
19486.183085	16964.215500	1836.530273	140.930267
19486.183085	16964.215500	1835.536133	184.855820
19486.183085	16964.215500	1834.541016	197.530350
19486.183085	16964.215500	1833.545898	315.891449
19486.183085	16964.215500	1832.550781	215.659576
19486.183085	16964.215500	1831.555664	211.510223
19486.183085	16964.215500	1830.560547	132.937225
19486.183085	16964.215500	1829.564453	68.793434
19486.183085	16964.215500	1828.568359	199.057465
19486.183085	16964.215500	1827.572266	221.297409
19486.183085	16964.215500	1826.576172	250.721924
19486.183085	16964.215500	1825.580078	160.209656
19486.183085	16964.215500	1824.583008	-38.181503
19486.183085	16964.215500	1823.585938	65.589554
19486.183085	16964.215500	1822.588867	169.317459
19486.183085	16964.215500	1821.591797	-139.220734
19486.183085	16964.215500	1820.594727	228.076233
19486.183085	16964.215500	1819.596680	283.785767
19486.183085	16964.215500	1818.599609	265.213135
19486.183085	16964.215500	1817.601563	428.650085
19486.183085	16964.215500	1816.603516	96.381981
19486.183085	16964.215500	1815.604492	281.324036
19486.183085	16964.215500	1814.606445	-57.986023
19486.183085	16964.215500	1813.607422	248.944748
19486.183085	16964.215500	1812.608398	170.546173
19486.183085	16964.215500	1811.609375	13.230092
19486.183085	16964.215500	1810.610352	109.484474
19486.183085	16964.215500	1809.610352	-38.210987
19486.183085	16964.215500	1808.611328	399.876801
19486.183085	16964.215500	1807.611328	378.852051
19486.183085	16964.215500	1806.611328	228.773560
19486.183085	16964.215500	1805.610352	167.150253
19486.183085	16964.215500	1804.610352	270.377441
19486.183085	16964.215500	1803.609375	34.389301
19486.183085	16964.215500	1802.608398	221.166565
19486.183085	16964.215500	1801.607422	233.566391
19486.183085	16964.215500	1800.606445	327.113861
19486.183085	16964.215500	1799.605469	155.689590
19486.183085	16964.215500	1798.603516	289.761414
19486.183085	16964.215500	1797.601563	144.630478
19486.183085	16964.215500	1796.599609	214.224213
19486.183085	16964.215500	1795.597656	-19.102184
19486.183085	16964.215500	1794.595703	138.695969
19486.183085	16964.215500	1793.592773	-1.577580
19486.183085	16964.215500	1792.589844	175.200607
19486.183085	16964.215500	1791.587891	89.757530
19486.183085	16964.215500	1790.583984	178.266647
19486.183085	16964.215500	1789.581055	-33.428417
19486.183085	16964.215500	1788.577148	267.018341
19486.183085	16964.215500	1787.574219	-77.993484
19486.183085	16964.215500	1786.570313	-75.285866
19486.183085	16964.215500	1785.566406	122.596764
19486.183085	16964.215500	1784.561523	306.110413
19486.183085	16964.215500	1783.557617	194.481003
19486.183085	16964.215500	1782.552734	101.911842
19486.183085	16964.215500	1781.547852	64.069481
19486.183085	16964.215500	1780.542969	252.149033
19486.183085	16964.215500	1779.538086	242.792862
19486.183085	16964.215500	1778.532227	269.081940
19486.183085	16964.215500	1777.527344	-8.884597
19486.183085	16964.215500	1776.521484	331.084686
19486.183085	16964.215500	1775.515625	250.375244
19486.183085	16964.215500	1774.508789	300.329681
19486.183085	16964.215500	1773.502930	39.125443
19486.183085	16964.215500	1772.496094	162.676498
19486.183085	16964.215500	1771.489258	117.602730
19486.183085	16964.215500	1770.482422	188.833664
19486.183085	16964.215500	1769.475586	-209.867188
19486.183085	16964.215500	1768.467773	143.717697
19486.183085	16964.215500	1767.460938	373.791412
19486.183085	16964.215500	1766.453125	155.484543
19486.183085	16964.215500	1765.445313	112.723740
19486.183085	16964.215500	1764.437500	162.424866
19486.183085	16964.215500	1763.428711	-169.555908
19486.183085	16964.215500	1762.420898	3.381175
19486.183085	16964.215500	1761.412109	275.757141
19486.183085	16964.215500	1760.403320	237.653107
19486.183085	16964.215500	1759.393555	31.372414
19486.183085	16964.215500	1758.384766	-87.229149
19486.183085	16964.215500	1757.375000	-94.519341
19486.183085	16964.215500	1756.366211	267.470978
19486.183085	16964.215500	1755.356445	136.999008
19486.183085	16964.215500	1754.345703	20.754042
19486.183085	16964.215500	1753.335938	93.808868
19486.183085	16964.215500	1752.325195	-133.602859
19486.183085	16964.215500	1751.315430	272.884674
19486.183085	16964.215500	1750.304688	52.575413
19486.183085	16964.215500	1749.292969	-108.564011
19486.183085	16964.215500	1748.282227	-14.386354
19486.183085	16964.215500	1747.270508	216.806702
19486.183085	16964.215500	1746.259766	3.680057
19486.183085	16964.215500	1745.248047	78.822586
19486.183085	16964.215500	1744.235352	288.542786
19486.183085	16964.215500	1743.223633	115.605293
19486.183085	16964.215500	1742.211914	-168.253082
19486.183085	16964.215500	1741.199219	-12.963634
19486.183085	16964.215500	1740.186523	224.850159
19486.183085	16964.215500	1739.173828	47.252728
19486.183085	16964.215500	1738.160156	98.545197
19486.183085	16964.215500	1737.147461	46.010059
19486.183085	16964.215500	1736.133789	278.827667
19486.183085	16964.215500	1735.120117	49.396160
19486.183085	16964.215500	1734.106445	159.496765
19486.183085	16964.215500	1733.091797	-60.440533
19486.183085	16964.215500	1732.078125	-129.498260
19486.183085	16964.215500	1731.063477	213.757675
19486.183085	16964.215500	1730.048828	22.139572
19486.183085	16964.215500	1729.034180	0.143575
19486.183085	16964.215500	1728.019531	41.713089
19486.183085	16964.215500	1727.003906	45.574863
19486.183085	16964.215500	1725.988281	225.949493
19486.183085	16964.215500	1724.972656	32.051888
19486.183085	16964.215500	1723.957031	80.555954
19486.183085	16964.215500	1722.941406	-56.823395
19486.183085	16964.215500	1721.924805	48.083885
19486.183085	16964.215500	1720.909180	-14.030798
19486.183085	16964.215500	1719.892578	130.754578
19486.183085	16964.215500	1718.875977	-124.145882
19486.183085	16964.215500	1717.858398	37.015961
19486.183085	16964.215500	1716.841797	47.709023
19486.183085	16964.215500	1715.824219	114.763390
19486.183085	16964.215500	1714.806641	134.792511
19486.183085	16964.215500	1713.789063	-70.652710
19486.183085	16964.215500	1712.770508	209.986328
19486.183085	16964.215500	1711.752930	107.854530
19486.183085	16964.215500	1710.734375	45.643166
19486.183085	16964.215500	1709.715820	-220.719742
19486.183085	16964.215500	1708.697266	-116.308273
19486.183085	16964.215500	1707.678711	-30.723822
19486.183085	16964.215500	1706.659180	-46.034832
19486.183085	16964.215500	1705.640625	1.948792
19486.183085	16964.215500	1704.621094	42.861481
19486.183085	16964.215500	1703.600586	-253.782974
19486.183085	16964.215500	1702.581055	28.500578
19486.183085	16964.215500	1701.561523	252.083130
19486.183085	16964.215500	1700.541016	96.066086
19486.183085	16964.215500	1699.520508	-45.854717
19486.183085	16964.215500	1698.500000	-157.300171
19486.183085	16964.215500	1697.478516	166.743195
19486.183085	16964.215500	1696.458008	24.836927
19486.183085	16964.215500	1695.436523	53.806610
19486.183085	16964.215500	1694.415039	403.309113
19486.183085	16964.215500	1693.393555	118.680595
19486.183085	16964.215500	1692.372070	-221.988861
19486.183085	16964.215500	1691.349609	-29.365532
19486.183085	16964.215500	1690.327148	69.645042
19486.183085	16964.215500	1689.304688	147.560684
19486.183085	16964.215500	1688.282227	94.551567
19486.183085	16964.215500	1687.259766	71.924583
19486.183085	16964.215500	1686.236328	23.589592
19486.183085	16964.215500	1685.213867	278.915161
19486.183085	16964.215500	1684.190430	92.744141
19486.183085	16964.215500	1683.166016	366.606110
19486.183085	16964.215500	1682.142578	-78.665482
19486.183085	16964.215500	1681.119141	-138.666611
19486.183085	16964.215500	1680.094727	270.385559
19486.183085	16964.215500	1679.070313	-50.998291
19486.183085	16964.215500	1678.045898	-97.015144
19486.183085	16964.215500	1677.020508	197.473297
19486.183085	16964.215500	1675.996094	240.005783
19486.183085	16964.215500	1674.970703	296.495331
19486.183085	16964.215500	1673.945313	96.558136
19486.183085	16964.215500	1672.919922	38.841022
19486.183085	16964.215500	1671.893555	83.652168
19486.183085	16964.215500	1670.868164	396.329254
19486.183085	16964.215500	1669.841797	152.226654
19486.183085	16964.215500	1668.815430	306.402039
19486.183085	16964.215500	1667.789063	132.236572
19486.183085	16964.215500	1666.761719	100.116592
19486.183085	16964.215500	1665.735352	175.055649
19486.183085	16964.215500	1664.708008	249.956863
19486.183085	16964.215500	1663.680664	187.561569
19486.183085	16964.215500	1662.653320	313.583008
19486.183085	16964.215500	1661.625000	237.231659
19486.183085	16964.215500	1660.597656	228.325897
19486.183085	16964.215500	1659.569336	365.864471
19486.183085	16964.215500	1658.541016	403.405182
19486.183085	16964.215500	1657.512695	292.210114
19486.183085	16964.215500	1656.483398	236.808090
19486.183085	16964.215500	1655.455078	327.755829
19486.183085	16964.215500	1654.425781	126.050125
19486.183085	16964.215500	1653.396484	163.569092
19486.183085	16964.215500	1652.366211	296.245880
19486.183085	16964.215500	1651.336914	247.832565
19486.183085	16964.215500	1650.306641	340.984070
19486.183085	16964.215500	1649.276367	383.055145
19486.183085	16964.215500	1648.246094	174.585251
19486.183085	16964.215500	1647.215820	761.672424
19486.183085	16964.215500	1646.185547	358.430389
19486.183085	16964.215500	1645.154297	493.184784
19486.183085	16964.215500	1644.123047	551.395935
19486.183085	16964.215500	1643.091797	635.071960
19486.183085	16964.215500	1642.060547	725.668396
19486.183085	16964.215500	1641.028320	454.854736
19486.183085	16964.215500	1639.997070	619.560791
19486.183085	16964.215500	1638.964844	473.914215
19486.183085	16964.215500	1637.931641	587.620483
19486.183085	16964.215500	1636.899414	492.960968
19486.183085	16964.215500	1635.867188	625.134460
19486.183085	16964.215500	1634.833984	650.824219
19486.183085	16964.215500	1633.800781	408.158386
19486.183085	16964.215500	1632.767578	588.848328
19486.183085	16964.215500	1631.734375	441.105408
19486.183085	16964.215500	1630.700195	647.155823
19486.183085	16964.215500	1629.666016	587.303528
19486.183085	16964.215500	1628.631836	573.701294
19486.183085	16964.215500	1627.597656	520.826111
19486.183085	16964.215500	1626.563477	666.656982
19486.183085	16964.215500	1625.528320	731.591919
19486.183085	16964.215500	1624.493164	535.557983
19486.183085	16964.215500	1623.458008	653.610229
19486.183085	16964.215500	1622.422852	776.239441
19486.183085	16964.215500	1621.387695	462.625610
19486.183085	16964.215500	1620.351563	571.414978
19486.183085	16964.215500	1619.315430	751.688843
19486.183085	16964.215500	1618.279297	1003.406616
19486.183085	16964.215500	1617.243164	611.615601
19486.183085	16964.215500	1616.207031	775.663879
19486.183085	16964.215500	1615.169922	692.994568
19486.183085	16964.215500	1614.132813	624.196716
19486.183085	16964.215500	1613.095703	799.698547
19486.183085	16964.215500	1612.058594	664.115601
19486.183085	16964.215500	1611.020508	574.664612
19486.183085	16964.215500	1609.983398	803.079712
19486.183085	16964.215500	1608.945313	683.729187
19486.183085	16964.215500	1607.907227	1257.377808
19486.183085	16964.215500	1606.868164	946.972656
19486.183085	16964.215500	1605.830078	997.995850
19486.183085	16964.215500	1604.791016	908.665466
19486.183085	16964.215500	1603.751953	874.591858
19486.183085	16964.215500	1602.712891	762.353638
19486.183085	16964.215500	1601.673828	930.703186
19486.183085	16964.215500	1600.633789	942.673645
19486.183085	16964.215500	1599.594727	904.088745
19486.183085	16964.215500	1598.554688	842.553345
19486.183085	16964.215500	1597.513672	967.169678
19486.183085	16964.215500	1596.473633	1126.212280
19486.183085	16964.215500	1595.433594	995.823975
19486.183085	16964.215500	1594.392578	1081.354248
19486.183085	16964.215500	1593.351563	774.282471
19486.183085	16964.215500	1592.310547	871.341614
