#X		#Y		#Wave		#Intensity
19469.007181	16926.672833	2000.043945	-349.907990
19469.007181	16926.672833	1999.080078	60.707111
19469.007181	16926.672833	1998.116211	116.643913
19469.007181	16926.672833	1997.151367	-105.179672
19469.007181	16926.672833	1996.186523	-111.555916
19469.007181	16926.672833	1995.222656	270.793945
19469.007181	16926.672833	1994.256836	132.716949
19469.007181	16926.672833	1993.291992	36.595284
19469.007181	16926.672833	1992.327148	-57.192867
19469.007181	16926.672833	1991.361328	9.792395
19469.007181	16926.672833	1990.395508	-71.914215
19469.007181	16926.672833	1989.429688	86.267494
19469.007181	16926.672833	1988.463867	11.671533
19469.007181	16926.672833	1987.497070	491.031830
19469.007181	16926.672833	1986.531250	0.595146
19469.007181	16926.672833	1985.564453	-2.692431
19469.007181	16926.672833	1984.597656	45.792412
19469.007181	16926.672833	1983.630859	-34.417351
19469.007181	16926.672833	1982.664063	-8.470447
19469.007181	16926.672833	1981.696289	113.699829
19469.007181	16926.672833	1980.728516	171.461304
19469.007181	16926.672833	1979.761719	-96.962234
19469.007181	16926.672833	1978.792969	-34.492031
19469.007181	16926.672833	1977.825195	87.077263
19469.007181	16926.672833	1976.857422	257.852844
19469.007181	16926.672833	1975.888672	322.330017
19469.007181	16926.672833	1974.919922	97.959122
19469.007181	16926.672833	1973.951172	-10.483251
19469.007181	16926.672833	1972.982422	-59.794792
19469.007181	16926.672833	1972.013672	213.884964
19469.007181	16926.672833	1971.043945	43.529037
19469.007181	16926.672833	1970.075195	289.768555
19469.007181	16926.672833	1969.105469	281.946747
19469.007181	16926.672833	1968.135742	-228.702362
19469.007181	16926.672833	1967.165039	-177.468094
19469.007181	16926.672833	1966.195313	60.876976
19469.007181	16926.672833	1965.224609	-112.270157
19469.007181	16926.672833	1964.253906	130.738724
19469.007181	16926.672833	1963.283203	28.878883
19469.007181	16926.672833	1962.312500	434.080597
19469.007181	16926.672833	1961.341797	125.311195
19469.007181	16926.672833	1960.370117	148.788330
19469.007181	16926.672833	1959.399414	152.496063
19469.007181	16926.672833	1958.427734	-25.884888
19469.007181	16926.672833	1957.455078	290.071411
19469.007181	16926.672833	1956.483398	227.169586
19469.007181	16926.672833	1955.511719	321.568359
19469.007181	16926.672833	1954.539063	172.539368
19469.007181	16926.672833	1953.566406	308.580750
19469.007181	16926.672833	1952.593750	100.524712
19469.007181	16926.672833	1951.621094	44.804897
19469.007181	16926.672833	1950.647461	293.622284
19469.007181	16926.672833	1949.674805	-150.216049
19469.007181	16926.672833	1948.701172	397.986603
19469.007181	16926.672833	1947.727539	-119.437607
19469.007181	16926.672833	1946.753906	-187.570786
19469.007181	16926.672833	1945.780273	104.997025
19469.007181	16926.672833	1944.805664	129.999466
19469.007181	16926.672833	1943.831055	44.569538
19469.007181	16926.672833	1942.856445	206.837830
19469.007181	16926.672833	1941.881836	72.311798
19469.007181	16926.672833	1940.907227	38.315308
19469.007181	16926.672833	1939.932617	156.271759
19469.007181	16926.672833	1938.957031	-245.388397
19469.007181	16926.672833	1937.981445	46.485416
19469.007181	16926.672833	1937.005859	-4.744055
19469.007181	16926.672833	1936.030273	147.309341
19469.007181	16926.672833	1935.054688	394.785614
19469.007181	16926.672833	1934.078125	-26.262056
19469.007181	16926.672833	1933.101563	-60.399948
19469.007181	16926.672833	1932.125000	98.802864
19469.007181	16926.672833	1931.148438	18.115166
19469.007181	16926.672833	1930.171875	155.184586
19469.007181	16926.672833	1929.194336	50.024944
19469.007181	16926.672833	1928.217773	-94.251343
19469.007181	16926.672833	1927.240234	30.489542
19469.007181	16926.672833	1926.262695	-311.781647
19469.007181	16926.672833	1925.284180	-35.525883
19469.007181	16926.672833	1924.306641	167.293045
19469.007181	16926.672833	1923.328125	-89.328018
19469.007181	16926.672833	1922.350586	76.756538
19469.007181	16926.672833	1921.372070	37.603996
19469.007181	16926.672833	1920.392578	-35.726276
19469.007181	16926.672833	1919.414063	49.657394
19469.007181	16926.672833	1918.434570	-60.281624
19469.007181	16926.672833	1917.456055	-70.126305
19469.007181	16926.672833	1916.476563	-153.177048
19469.007181	16926.672833	1915.497070	68.765190
19469.007181	16926.672833	1914.516602	68.649117
19469.007181	16926.672833	1913.537109	-63.174713
19469.007181	16926.672833	1912.556641	117.161087
19469.007181	16926.672833	1911.576172	7.314471
19469.007181	16926.672833	1910.595703	82.752739
19469.007181	16926.672833	1909.615234	126.478340
19469.007181	16926.672833	1908.633789	-205.040726
19469.007181	16926.672833	1907.653320	265.034302
19469.007181	16926.672833	1906.671875	240.500229
19469.007181	16926.672833	1905.690430	13.852796
19469.007181	16926.672833	1904.708984	-10.628372
19469.007181	16926.672833	1903.727539	-130.036697
19469.007181	16926.672833	1902.745117	45.093693
19469.007181	16926.672833	1901.762695	-101.044312
19469.007181	16926.672833	1900.780273	-25.733686
19469.007181	16926.672833	1899.797852	151.711334
19469.007181	16926.672833	1898.815430	119.939384
19469.007181	16926.672833	1897.832031	-28.531031
19469.007181	16926.672833	1896.849609	-96.724731
19469.007181	16926.672833	1895.866211	14.981024
19469.007181	16926.672833	1894.882813	75.610962
19469.007181	16926.672833	1893.898438	-19.279404
19469.007181	16926.672833	1892.915039	-172.439575
19469.007181	16926.672833	1891.930664	296.241364
19469.007181	16926.672833	1890.947266	-19.620901
19469.007181	16926.672833	1889.962891	14.262240
19469.007181	16926.672833	1888.977539	4.443492
19469.007181	16926.672833	1887.993164	217.907608
19469.007181	16926.672833	1887.007813	-240.857651
19469.007181	16926.672833	1886.023438	-146.303101
19469.007181	16926.672833	1885.038086	-301.622650
19469.007181	16926.672833	1884.051758	8.759740
19469.007181	16926.672833	1883.066406	-83.485741
19469.007181	16926.672833	1882.081055	74.004791
19469.007181	16926.672833	1881.094727	282.341278
19469.007181	16926.672833	1880.108398	-410.897186
19469.007181	16926.672833	1879.122070	-263.120941
19469.007181	16926.672833	1878.135742	-282.552917
19469.007181	16926.672833	1877.148438	136.410904
19469.007181	16926.672833	1876.162109	114.487488
19469.007181	16926.672833	1875.174805	-6.689136
19469.007181	16926.672833	1874.187500	247.378021
19469.007181	16926.672833	1873.199219	232.710861
19469.007181	16926.672833	1872.211914	164.805618
19469.007181	16926.672833	1871.223633	-280.479187
19469.007181	16926.672833	1870.236328	12.137838
19469.007181	16926.672833	1869.248047	-84.711372
19469.007181	16926.672833	1868.258789	-14.687372
19469.007181	16926.672833	1867.270508	-19.641645
19469.007181	16926.672833	1866.282227	-43.935204
19469.007181	16926.672833	1865.292969	115.440041
19469.007181	16926.672833	1864.303711	100.789558
19469.007181	16926.672833	1863.314453	148.942978
19469.007181	16926.672833	1862.324219	163.265747
19469.007181	16926.672833	1861.334961	129.275528
19469.007181	16926.672833	1860.344727	208.766159
19469.007181	16926.672833	1859.354492	29.937641
19469.007181	16926.672833	1858.364258	312.125366
19469.007181	16926.672833	1857.374023	104.369865
19469.007181	16926.672833	1856.383789	65.557289
19469.007181	16926.672833	1855.392578	70.170151
19469.007181	16926.672833	1854.401367	135.060776
19469.007181	16926.672833	1853.410156	33.546944
19469.007181	16926.672833	1852.418945	16.430826
19469.007181	16926.672833	1851.426758	211.413589
19469.007181	16926.672833	1850.435547	517.155579
19469.007181	16926.672833	1849.443359	-186.731293
19469.007181	16926.672833	1848.451172	-85.806839
19469.007181	16926.672833	1847.458984	202.918564
19469.007181	16926.672833	1846.466797	-2.110372
19469.007181	16926.672833	1845.473633	113.123787
19469.007181	16926.672833	1844.480469	-120.725822
19469.007181	16926.672833	1843.487305	-46.458649
19469.007181	16926.672833	1842.494141	61.446140
19469.007181	16926.672833	1841.500977	231.839462
19469.007181	16926.672833	1840.506836	216.949570
19469.007181	16926.672833	1839.513672	324.685150
19469.007181	16926.672833	1838.519531	302.530701
19469.007181	16926.672833	1837.525391	321.227325
19469.007181	16926.672833	1836.530273	121.184822
19469.007181	16926.672833	1835.536133	322.489777
19469.007181	16926.672833	1834.541016	-55.311028
19469.007181	16926.672833	1833.545898	150.711105
19469.007181	16926.672833	1832.550781	-92.473816
19469.007181	16926.672833	1831.555664	-95.475838
19469.007181	16926.672833	1830.560547	115.161369
19469.007181	16926.672833	1829.564453	126.472397
19469.007181	16926.672833	1828.568359	27.358717
19469.007181	16926.672833	1827.572266	-117.332718
19469.007181	16926.672833	1826.576172	-185.233459
19469.007181	16926.672833	1825.580078	44.267109
19469.007181	16926.672833	1824.583008	192.123352
19469.007181	16926.672833	1823.585938	136.100159
19469.007181	16926.672833	1822.588867	413.263245
19469.007181	16926.672833	1821.591797	-155.727997
19469.007181	16926.672833	1820.594727	212.371887
19469.007181	16926.672833	1819.596680	91.571762
19469.007181	16926.672833	1818.599609	227.072418
19469.007181	16926.672833	1817.601563	309.804413
19469.007181	16926.672833	1816.603516	205.706635
19469.007181	16926.672833	1815.604492	218.916794
19469.007181	16926.672833	1814.606445	88.469917
19469.007181	16926.672833	1813.607422	218.878311
19469.007181	16926.672833	1812.608398	107.547844
19469.007181	16926.672833	1811.609375	142.136032
19469.007181	16926.672833	1810.610352	-179.687897
19469.007181	16926.672833	1809.610352	168.113876
19469.007181	16926.672833	1808.611328	276.660889
19469.007181	16926.672833	1807.611328	158.045013
19469.007181	16926.672833	1806.611328	3.582585
19469.007181	16926.672833	1805.610352	-72.011040
19469.007181	16926.672833	1804.610352	-13.844481
19469.007181	16926.672833	1803.609375	6.042973
19469.007181	16926.672833	1802.608398	350.649445
19469.007181	16926.672833	1801.607422	-64.180061
19469.007181	16926.672833	1800.606445	464.026489
19469.007181	16926.672833	1799.605469	390.532104
19469.007181	16926.672833	1798.603516	226.342896
19469.007181	16926.672833	1797.601563	71.709175
19469.007181	16926.672833	1796.599609	-187.873596
19469.007181	16926.672833	1795.597656	-77.751778
19469.007181	16926.672833	1794.595703	463.863098
19469.007181	16926.672833	1793.592773	154.135086
19469.007181	16926.672833	1792.589844	63.756195
19469.007181	16926.672833	1791.587891	180.684250
19469.007181	16926.672833	1790.583984	97.375359
19469.007181	16926.672833	1789.581055	-24.073099
19469.007181	16926.672833	1788.577148	268.891937
19469.007181	16926.672833	1787.574219	161.630402
19469.007181	16926.672833	1786.570313	128.158035
19469.007181	16926.672833	1785.566406	-207.666748
19469.007181	16926.672833	1784.561523	-126.932220
19469.007181	16926.672833	1783.557617	260.663422
19469.007181	16926.672833	1782.552734	77.086639
19469.007181	16926.672833	1781.547852	93.319199
19469.007181	16926.672833	1780.542969	-290.041809
19469.007181	16926.672833	1779.538086	144.602722
19469.007181	16926.672833	1778.532227	110.709091
19469.007181	16926.672833	1777.527344	152.818130
19469.007181	16926.672833	1776.521484	61.776546
19469.007181	16926.672833	1775.515625	75.244194
19469.007181	16926.672833	1774.508789	-141.772049
19469.007181	16926.672833	1773.502930	-175.900726
19469.007181	16926.672833	1772.496094	13.126245
19469.007181	16926.672833	1771.489258	2.592071
19469.007181	16926.672833	1770.482422	-102.949020
19469.007181	16926.672833	1769.475586	140.338470
19469.007181	16926.672833	1768.467773	108.232567
19469.007181	16926.672833	1767.460938	-118.456970
19469.007181	16926.672833	1766.453125	-53.394371
19469.007181	16926.672833	1765.445313	123.028191
19469.007181	16926.672833	1764.437500	123.866974
19469.007181	16926.672833	1763.428711	138.860657
19469.007181	16926.672833	1762.420898	66.085335
19469.007181	16926.672833	1761.412109	242.073425
19469.007181	16926.672833	1760.403320	50.710468
19469.007181	16926.672833	1759.393555	231.227142
19469.007181	16926.672833	1758.384766	231.621964
19469.007181	16926.672833	1757.375000	-156.370026
19469.007181	16926.672833	1756.366211	125.662125
19469.007181	16926.672833	1755.356445	-25.622972
19469.007181	16926.672833	1754.345703	123.612061
19469.007181	16926.672833	1753.335938	133.124329
19469.007181	16926.672833	1752.325195	163.849380
19469.007181	16926.672833	1751.315430	40.759480
19469.007181	16926.672833	1750.304688	90.258675
19469.007181	16926.672833	1749.292969	146.754715
19469.007181	16926.672833	1748.282227	63.696857
19469.007181	16926.672833	1747.270508	-90.304192
19469.007181	16926.672833	1746.259766	-104.916069
19469.007181	16926.672833	1745.248047	-1.481445
19469.007181	16926.672833	1744.235352	54.600834
19469.007181	16926.672833	1743.223633	-198.766083
19469.007181	16926.672833	1742.211914	41.337124
19469.007181	16926.672833	1741.199219	-112.942017
19469.007181	16926.672833	1740.186523	-7.628427
19469.007181	16926.672833	1739.173828	-58.167549
19469.007181	16926.672833	1738.160156	202.646576
19469.007181	16926.672833	1737.147461	-22.617905
19469.007181	16926.672833	1736.133789	-146.466980
19469.007181	16926.672833	1735.120117	-131.233749
19469.007181	16926.672833	1734.106445	-417.832367
19469.007181	16926.672833	1733.091797	-70.381363
19469.007181	16926.672833	1732.078125	41.209660
19469.007181	16926.672833	1731.063477	-35.804237
19469.007181	16926.672833	1730.048828	-230.648300
19469.007181	16926.672833	1729.034180	-157.010056
19469.007181	16926.672833	1728.019531	224.987457
19469.007181	16926.672833	1727.003906	223.016342
19469.007181	16926.672833	1725.988281	-82.671783
19469.007181	16926.672833	1724.972656	209.427032
19469.007181	16926.672833	1723.957031	7.226924
19469.007181	16926.672833	1722.941406	101.434967
19469.007181	16926.672833	1721.924805	-114.937210
19469.007181	16926.672833	1720.909180	96.677170
19469.007181	16926.672833	1719.892578	65.967224
19469.007181	16926.672833	1718.875977	-51.783546
19469.007181	16926.672833	1717.858398	-28.557905
19469.007181	16926.672833	1716.841797	48.627575
19469.007181	16926.672833	1715.824219	-139.768982
19469.007181	16926.672833	1714.806641	57.040150
19469.007181	16926.672833	1713.789063	-49.247566
19469.007181	16926.672833	1712.770508	163.744171
19469.007181	16926.672833	1711.752930	87.839409
19469.007181	16926.672833	1710.734375	-133.635239
19469.007181	16926.672833	1709.715820	-50.043961
19469.007181	16926.672833	1708.697266	110.859581
19469.007181	16926.672833	1707.678711	1.868608
19469.007181	16926.672833	1706.659180	-100.123360
19469.007181	16926.672833	1705.640625	341.843445
19469.007181	16926.672833	1704.621094	12.268652
19469.007181	16926.672833	1703.600586	203.087906
19469.007181	16926.672833	1702.581055	-98.363579
19469.007181	16926.672833	1701.561523	-118.616180
19469.007181	16926.672833	1700.541016	-199.845078
19469.007181	16926.672833	1699.520508	-75.013214
19469.007181	16926.672833	1698.500000	309.618042
19469.007181	16926.672833	1697.478516	85.312782
19469.007181	16926.672833	1696.458008	-50.030354
19469.007181	16926.672833	1695.436523	69.694557
19469.007181	16926.672833	1694.415039	9.132390
19469.007181	16926.672833	1693.393555	250.301132
19469.007181	16926.672833	1692.372070	257.410217
19469.007181	16926.672833	1691.349609	56.313221
19469.007181	16926.672833	1690.327148	589.370239
19469.007181	16926.672833	1689.304688	577.487915
19469.007181	16926.672833	1688.282227	247.686325
19469.007181	16926.672833	1687.259766	165.631927
19469.007181	16926.672833	1686.236328	305.478882
19469.007181	16926.672833	1685.213867	421.848083
19469.007181	16926.672833	1684.190430	449.353912
19469.007181	16926.672833	1683.166016	392.721344
19469.007181	16926.672833	1682.142578	683.878296
19469.007181	16926.672833	1681.119141	253.648788
19469.007181	16926.672833	1680.094727	175.878052
19469.007181	16926.672833	1679.070313	606.690613
19469.007181	16926.672833	1678.045898	531.081238
19469.007181	16926.672833	1677.020508	364.475067
19469.007181	16926.672833	1675.996094	477.685638
19469.007181	16926.672833	1674.970703	719.002075
19469.007181	16926.672833	1673.945313	179.324738
19469.007181	16926.672833	1672.919922	704.788940
19469.007181	16926.672833	1671.893555	475.075562
19469.007181	16926.672833	1670.868164	308.289734
19469.007181	16926.672833	1669.841797	770.348999
19469.007181	16926.672833	1668.815430	619.743896
19469.007181	16926.672833	1667.789063	497.072662
19469.007181	16926.672833	1666.761719	341.797211
19469.007181	16926.672833	1665.735352	510.017395
19469.007181	16926.672833	1664.708008	487.310486
19469.007181	16926.672833	1663.680664	466.880127
19469.007181	16926.672833	1662.653320	455.705627
19469.007181	16926.672833	1661.625000	677.020081
19469.007181	16926.672833	1660.597656	486.669983
19469.007181	16926.672833	1659.569336	777.519287
19469.007181	16926.672833	1658.541016	754.445801
19469.007181	16926.672833	1657.512695	791.743225
19469.007181	16926.672833	1656.483398	877.753967
19469.007181	16926.672833	1655.455078	1314.426514
19469.007181	16926.672833	1654.425781	1019.341309
19469.007181	16926.672833	1653.396484	738.249390
19469.007181	16926.672833	1652.366211	1030.604248
19469.007181	16926.672833	1651.336914	802.903748
19469.007181	16926.672833	1650.306641	1101.999390
19469.007181	16926.672833	1649.276367	941.554443
19469.007181	16926.672833	1648.246094	1490.933228
19469.007181	16926.672833	1647.215820	1425.470703
19469.007181	16926.672833	1646.185547	1369.265259
19469.007181	16926.672833	1645.154297	1301.440063
19469.007181	16926.672833	1644.123047	1465.381592
19469.007181	16926.672833	1643.091797	1821.559570
19469.007181	16926.672833	1642.060547	1751.244263
19469.007181	16926.672833	1641.028320	1789.783569
19469.007181	16926.672833	1639.997070	1923.232788
19469.007181	16926.672833	1638.964844	1915.335327
19469.007181	16926.672833	1637.931641	2122.705078
19469.007181	16926.672833	1636.899414	2103.126709
19469.007181	16926.672833	1635.867188	1805.808594
19469.007181	16926.672833	1634.833984	1952.815552
19469.007181	16926.672833	1633.800781	2201.518555
19469.007181	16926.672833	1632.767578	1661.393188
19469.007181	16926.672833	1631.734375	1988.616455
19469.007181	16926.672833	1630.700195	2091.410645
19469.007181	16926.672833	1629.666016	2136.346191
19469.007181	16926.672833	1628.631836	1698.217285
19469.007181	16926.672833	1627.597656	1854.067871
19469.007181	16926.672833	1626.563477	2081.447754
19469.007181	16926.672833	1625.528320	2179.360840
19469.007181	16926.672833	1624.493164	2085.537598
19469.007181	16926.672833	1623.458008	2010.199951
19469.007181	16926.672833	1622.422852	2135.700439
19469.007181	16926.672833	1621.387695	1940.325562
19469.007181	16926.672833	1620.351563	1952.676392
19469.007181	16926.672833	1619.315430	1941.931030
19469.007181	16926.672833	1618.279297	2034.969727
19469.007181	16926.672833	1617.243164	2086.443604
19469.007181	16926.672833	1616.207031	2128.660889
19469.007181	16926.672833	1615.169922	2078.626709
19469.007181	16926.672833	1614.132813	2116.183594
19469.007181	16926.672833	1613.095703	2342.670654
19469.007181	16926.672833	1612.058594	2117.490967
19469.007181	16926.672833	1611.020508	2019.070435
19469.007181	16926.672833	1609.983398	2392.807373
19469.007181	16926.672833	1608.945313	2077.912842
19469.007181	16926.672833	1607.907227	2336.364258
19469.007181	16926.672833	1606.868164	2477.315430
19469.007181	16926.672833	1605.830078	1930.149536
19469.007181	16926.672833	1604.791016	2188.456299
19469.007181	16926.672833	1603.751953	2375.351807
19469.007181	16926.672833	1602.712891	2249.387939
19469.007181	16926.672833	1601.673828	2436.196533
19469.007181	16926.672833	1600.633789	2218.304932
19469.007181	16926.672833	1599.594727	2533.768066
19469.007181	16926.672833	1598.554688	2219.429443
19469.007181	16926.672833	1597.513672	2148.759521
19469.007181	16926.672833	1596.473633	2153.937988
19469.007181	16926.672833	1595.433594	2466.884033
19469.007181	16926.672833	1594.392578	2522.525879
19469.007181	16926.672833	1593.351563	2449.586426
