#X		#Y		#Wave		#Intensity
19444.424096	16875.502667	2000.043945	-1.166561
19444.424096	16875.502667	1999.080078	104.373871
19444.424096	16875.502667	1998.116211	180.403412
19444.424096	16875.502667	1997.151367	261.193268
19444.424096	16875.502667	1996.186523	101.451515
19444.424096	16875.502667	1995.222656	142.262726
19444.424096	16875.502667	1994.256836	-2.848157
19444.424096	16875.502667	1993.291992	176.340408
19444.424096	16875.502667	1992.327148	-11.107364
19444.424096	16875.502667	1991.361328	-99.606453
19444.424096	16875.502667	1990.395508	237.484100
19444.424096	16875.502667	1989.429688	-7.182227
19444.424096	16875.502667	1988.463867	20.260830
19444.424096	16875.502667	1987.497070	124.257698
19444.424096	16875.502667	1986.531250	-234.370926
19444.424096	16875.502667	1985.564453	-24.265728
19444.424096	16875.502667	1984.597656	-56.618656
19444.424096	16875.502667	1983.630859	271.812988
19444.424096	16875.502667	1982.664063	214.507126
19444.424096	16875.502667	1981.696289	-20.766870
19444.424096	16875.502667	1980.728516	20.636976
19444.424096	16875.502667	1979.761719	-19.567698
19444.424096	16875.502667	1978.792969	95.740234
19444.424096	16875.502667	1977.825195	62.787216
19444.424096	16875.502667	1976.857422	101.360489
19444.424096	16875.502667	1975.888672	11.511579
19444.424096	16875.502667	1974.919922	-46.291325
19444.424096	16875.502667	1973.951172	11.819487
19444.424096	16875.502667	1972.982422	-55.951466
19444.424096	16875.502667	1972.013672	-74.429039
19444.424096	16875.502667	1971.043945	136.363327
19444.424096	16875.502667	1970.075195	9.279756
19444.424096	16875.502667	1969.105469	-63.576706
19444.424096	16875.502667	1968.135742	40.985592
19444.424096	16875.502667	1967.165039	22.271807
19444.424096	16875.502667	1966.195313	190.749390
19444.424096	16875.502667	1965.224609	144.845901
19444.424096	16875.502667	1964.253906	-93.154366
19444.424096	16875.502667	1963.283203	-25.795750
19444.424096	16875.502667	1962.312500	34.124397
19444.424096	16875.502667	1961.341797	-29.063429
19444.424096	16875.502667	1960.370117	183.350449
19444.424096	16875.502667	1959.399414	225.903687
19444.424096	16875.502667	1958.427734	17.520018
19444.424096	16875.502667	1957.455078	23.161419
19444.424096	16875.502667	1956.483398	-62.194099
19444.424096	16875.502667	1955.511719	36.851219
19444.424096	16875.502667	1954.539063	180.092468
19444.424096	16875.502667	1953.566406	210.223602
19444.424096	16875.502667	1952.593750	-22.572016
19444.424096	16875.502667	1951.621094	-26.820995
19444.424096	16875.502667	1950.647461	91.733391
19444.424096	16875.502667	1949.674805	89.911598
19444.424096	16875.502667	1948.701172	36.529037
19444.424096	16875.502667	1947.727539	-11.925752
19444.424096	16875.502667	1946.753906	-21.091038
19444.424096	16875.502667	1945.780273	40.910480
19444.424096	16875.502667	1944.805664	-27.137468
19444.424096	16875.502667	1943.831055	25.039543
19444.424096	16875.502667	1942.856445	-38.064159
19444.424096	16875.502667	1941.881836	77.861115
19444.424096	16875.502667	1940.907227	56.462914
19444.424096	16875.502667	1939.932617	47.337929
19444.424096	16875.502667	1938.957031	84.788170
19444.424096	16875.502667	1937.981445	58.531071
19444.424096	16875.502667	1937.005859	223.376068
19444.424096	16875.502667	1936.030273	25.675539
19444.424096	16875.502667	1935.054688	109.679237
19444.424096	16875.502667	1934.078125	215.702682
19444.424096	16875.502667	1933.101563	-96.897362
19444.424096	16875.502667	1932.125000	80.131683
19444.424096	16875.502667	1931.148438	80.924179
19444.424096	16875.502667	1930.171875	49.927906
19444.424096	16875.502667	1929.194336	202.419174
19444.424096	16875.502667	1928.217773	129.870224
19444.424096	16875.502667	1927.240234	72.037224
19444.424096	16875.502667	1926.262695	-100.659004
19444.424096	16875.502667	1925.284180	-28.842636
19444.424096	16875.502667	1924.306641	-35.237034
19444.424096	16875.502667	1923.328125	107.436409
19444.424096	16875.502667	1922.350586	-118.806557
19444.424096	16875.502667	1921.372070	36.081226
19444.424096	16875.502667	1920.392578	81.040398
19444.424096	16875.502667	1919.414063	-5.842256
19444.424096	16875.502667	1918.434570	-4.792973
19444.424096	16875.502667	1917.456055	69.495598
19444.424096	16875.502667	1916.476563	-88.042610
19444.424096	16875.502667	1915.497070	-218.664139
19444.424096	16875.502667	1914.516602	50.825993
19444.424096	16875.502667	1913.537109	-106.560051
19444.424096	16875.502667	1912.556641	-29.783815
19444.424096	16875.502667	1911.576172	144.500488
19444.424096	16875.502667	1910.595703	138.366913
19444.424096	16875.502667	1909.615234	-101.698448
19444.424096	16875.502667	1908.633789	135.909531
19444.424096	16875.502667	1907.653320	-67.485909
19444.424096	16875.502667	1906.671875	28.797325
19444.424096	16875.502667	1905.690430	98.274673
19444.424096	16875.502667	1904.708984	272.438965
19444.424096	16875.502667	1903.727539	49.767368
19444.424096	16875.502667	1902.745117	-184.972946
19444.424096	16875.502667	1901.762695	-71.635834
19444.424096	16875.502667	1900.780273	10.046820
19444.424096	16875.502667	1899.797852	-44.503559
19444.424096	16875.502667	1898.815430	231.735016
19444.424096	16875.502667	1897.832031	-318.840424
19444.424096	16875.502667	1896.849609	100.809547
19444.424096	16875.502667	1895.866211	228.640579
19444.424096	16875.502667	1894.882813	18.641323
19444.424096	16875.502667	1893.898438	122.169716
19444.424096	16875.502667	1892.915039	96.919327
19444.424096	16875.502667	1891.930664	86.263779
19444.424096	16875.502667	1890.947266	17.340893
19444.424096	16875.502667	1889.962891	94.129791
19444.424096	16875.502667	1888.977539	134.489243
19444.424096	16875.502667	1887.993164	26.794241
19444.424096	16875.502667	1887.007813	188.495605
19444.424096	16875.502667	1886.023438	29.898968
19444.424096	16875.502667	1885.038086	-51.010689
19444.424096	16875.502667	1884.051758	-102.778976
19444.424096	16875.502667	1883.066406	12.782453
19444.424096	16875.502667	1882.081055	-38.970509
19444.424096	16875.502667	1881.094727	13.526049
19444.424096	16875.502667	1880.108398	27.233082
19444.424096	16875.502667	1879.122070	70.011147
19444.424096	16875.502667	1878.135742	183.027435
19444.424096	16875.502667	1877.148438	34.425903
19444.424096	16875.502667	1876.162109	21.486570
19444.424096	16875.502667	1875.174805	192.556717
19444.424096	16875.502667	1874.187500	-144.775818
19444.424096	16875.502667	1873.199219	-152.835846
19444.424096	16875.502667	1872.211914	-18.133446
19444.424096	16875.502667	1871.223633	31.841734
19444.424096	16875.502667	1870.236328	-145.578552
19444.424096	16875.502667	1869.248047	93.024178
19444.424096	16875.502667	1868.258789	-77.097023
19444.424096	16875.502667	1867.270508	81.613251
19444.424096	16875.502667	1866.282227	235.421906
19444.424096	16875.502667	1865.292969	-69.982315
19444.424096	16875.502667	1864.303711	98.275520
19444.424096	16875.502667	1863.314453	160.170135
19444.424096	16875.502667	1862.324219	214.785721
19444.424096	16875.502667	1861.334961	160.703171
19444.424096	16875.502667	1860.344727	-59.958996
19444.424096	16875.502667	1859.354492	-22.270172
19444.424096	16875.502667	1858.364258	-69.079865
19444.424096	16875.502667	1857.374023	19.236032
19444.424096	16875.502667	1856.383789	97.852425
19444.424096	16875.502667	1855.392578	60.643436
19444.424096	16875.502667	1854.401367	37.900120
19444.424096	16875.502667	1853.410156	-78.889153
19444.424096	16875.502667	1852.418945	-34.139332
19444.424096	16875.502667	1851.426758	116.622269
19444.424096	16875.502667	1850.435547	-48.376625
19444.424096	16875.502667	1849.443359	49.279957
19444.424096	16875.502667	1848.451172	187.826538
19444.424096	16875.502667	1847.458984	73.412636
19444.424096	16875.502667	1846.466797	45.701435
19444.424096	16875.502667	1845.473633	157.610779
19444.424096	16875.502667	1844.480469	211.680023
19444.424096	16875.502667	1843.487305	5.787167
19444.424096	16875.502667	1842.494141	-60.501255
19444.424096	16875.502667	1841.500977	-1.698801
19444.424096	16875.502667	1840.506836	-29.538136
19444.424096	16875.502667	1839.513672	53.219830
19444.424096	16875.502667	1838.519531	78.210213
19444.424096	16875.502667	1837.525391	83.926666
19444.424096	16875.502667	1836.530273	-25.759089
19444.424096	16875.502667	1835.536133	15.947970
19444.424096	16875.502667	1834.541016	158.508896
19444.424096	16875.502667	1833.545898	130.432129
19444.424096	16875.502667	1832.550781	87.917053
19444.424096	16875.502667	1831.555664	242.275360
19444.424096	16875.502667	1830.560547	98.846069
19444.424096	16875.502667	1829.564453	133.049515
19444.424096	16875.502667	1828.568359	-10.386893
19444.424096	16875.502667	1827.572266	174.899353
19444.424096	16875.502667	1826.576172	-38.145290
19444.424096	16875.502667	1825.580078	192.559479
19444.424096	16875.502667	1824.583008	116.188698
19444.424096	16875.502667	1823.585938	-58.498749
19444.424096	16875.502667	1822.588867	61.676086
19444.424096	16875.502667	1821.591797	47.545464
19444.424096	16875.502667	1820.594727	265.803955
19444.424096	16875.502667	1819.596680	277.896912
19444.424096	16875.502667	1818.599609	-57.382030
19444.424096	16875.502667	1817.601563	40.881920
19444.424096	16875.502667	1816.603516	31.309383
19444.424096	16875.502667	1815.604492	100.688316
19444.424096	16875.502667	1814.606445	95.791275
19444.424096	16875.502667	1813.607422	198.528809
19444.424096	16875.502667	1812.608398	-14.648143
19444.424096	16875.502667	1811.609375	-120.152359
19444.424096	16875.502667	1810.610352	-242.414185
19444.424096	16875.502667	1809.610352	-147.085342
19444.424096	16875.502667	1808.611328	98.770462
19444.424096	16875.502667	1807.611328	191.494873
19444.424096	16875.502667	1806.611328	198.090912
19444.424096	16875.502667	1805.610352	6.303164
19444.424096	16875.502667	1804.610352	-30.188423
19444.424096	16875.502667	1803.609375	129.131195
19444.424096	16875.502667	1802.608398	305.046600
19444.424096	16875.502667	1801.607422	129.856049
19444.424096	16875.502667	1800.606445	45.382248
19444.424096	16875.502667	1799.605469	77.825836
19444.424096	16875.502667	1798.603516	-52.071903
19444.424096	16875.502667	1797.601563	-12.591494
19444.424096	16875.502667	1796.599609	-180.715851
19444.424096	16875.502667	1795.597656	132.909027
19444.424096	16875.502667	1794.595703	43.377399
19444.424096	16875.502667	1793.592773	77.780869
19444.424096	16875.502667	1792.589844	-176.303299
19444.424096	16875.502667	1791.587891	167.800079
19444.424096	16875.502667	1790.583984	66.148666
19444.424096	16875.502667	1789.581055	-40.294563
19444.424096	16875.502667	1788.577148	17.572639
19444.424096	16875.502667	1787.574219	130.120987
19444.424096	16875.502667	1786.570313	56.850937
19444.424096	16875.502667	1785.566406	164.448669
19444.424096	16875.502667	1784.561523	145.797318
19444.424096	16875.502667	1783.557617	5.731047
19444.424096	16875.502667	1782.552734	44.073082
19444.424096	16875.502667	1781.547852	91.843903
19444.424096	16875.502667	1780.542969	94.340080
19444.424096	16875.502667	1779.538086	44.455841
19444.424096	16875.502667	1778.532227	110.999756
19444.424096	16875.502667	1777.527344	-10.316153
19444.424096	16875.502667	1776.521484	6.165539
19444.424096	16875.502667	1775.515625	184.127914
19444.424096	16875.502667	1774.508789	34.138092
19444.424096	16875.502667	1773.502930	97.881363
19444.424096	16875.502667	1772.496094	133.030258
19444.424096	16875.502667	1771.489258	182.336563
19444.424096	16875.502667	1770.482422	162.714142
19444.424096	16875.502667	1769.475586	302.028046
19444.424096	16875.502667	1768.467773	2.257165
19444.424096	16875.502667	1767.460938	222.055481
19444.424096	16875.502667	1766.453125	-8.953090
19444.424096	16875.502667	1765.445313	54.100903
19444.424096	16875.502667	1764.437500	19.847225
19444.424096	16875.502667	1763.428711	-54.770672
19444.424096	16875.502667	1762.420898	218.960541
19444.424096	16875.502667	1761.412109	75.463928
19444.424096	16875.502667	1760.403320	-1.717773
19444.424096	16875.502667	1759.393555	124.754150
19444.424096	16875.502667	1758.384766	-97.021599
19444.424096	16875.502667	1757.375000	-84.384163
19444.424096	16875.502667	1756.366211	160.171722
19444.424096	16875.502667	1755.356445	25.857422
19444.424096	16875.502667	1754.345703	-72.991333
19444.424096	16875.502667	1753.335938	81.283546
19444.424096	16875.502667	1752.325195	88.757278
19444.424096	16875.502667	1751.315430	98.520882
19444.424096	16875.502667	1750.304688	-64.416107
19444.424096	16875.502667	1749.292969	-99.708138
19444.424096	16875.502667	1748.282227	20.946238
19444.424096	16875.502667	1747.270508	165.105957
19444.424096	16875.502667	1746.259766	46.868687
19444.424096	16875.502667	1745.248047	-43.057495
19444.424096	16875.502667	1744.235352	20.493357
19444.424096	16875.502667	1743.223633	-24.678505
19444.424096	16875.502667	1742.211914	-95.878708
19444.424096	16875.502667	1741.199219	28.791925
19444.424096	16875.502667	1740.186523	224.141449
19444.424096	16875.502667	1739.173828	63.034317
19444.424096	16875.502667	1738.160156	-60.345314
19444.424096	16875.502667	1737.147461	-6.840806
19444.424096	16875.502667	1736.133789	96.085838
19444.424096	16875.502667	1735.120117	73.932533
19444.424096	16875.502667	1734.106445	72.929016
19444.424096	16875.502667	1733.091797	-170.919540
19444.424096	16875.502667	1732.078125	188.518845
19444.424096	16875.502667	1731.063477	173.129211
19444.424096	16875.502667	1730.048828	-7.220995
19444.424096	16875.502667	1729.034180	179.826935
19444.424096	16875.502667	1728.019531	39.427597
19444.424096	16875.502667	1727.003906	94.405167
19444.424096	16875.502667	1725.988281	-163.767120
19444.424096	16875.502667	1724.972656	-57.144566
19444.424096	16875.502667	1723.957031	-162.394791
19444.424096	16875.502667	1722.941406	-44.195168
19444.424096	16875.502667	1721.924805	95.048698
19444.424096	16875.502667	1720.909180	64.863968
19444.424096	16875.502667	1719.892578	-99.399887
19444.424096	16875.502667	1718.875977	124.186005
19444.424096	16875.502667	1717.858398	46.783199
19444.424096	16875.502667	1716.841797	-4.805207
19444.424096	16875.502667	1715.824219	105.650658
19444.424096	16875.502667	1714.806641	-98.750114
19444.424096	16875.502667	1713.789063	-124.663322
19444.424096	16875.502667	1712.770508	-82.551689
19444.424096	16875.502667	1711.752930	-42.863392
19444.424096	16875.502667	1710.734375	130.515640
19444.424096	16875.502667	1709.715820	52.676048
19444.424096	16875.502667	1708.697266	127.299026
19444.424096	16875.502667	1707.678711	105.653641
19444.424096	16875.502667	1706.659180	475.600098
19444.424096	16875.502667	1705.640625	219.285736
19444.424096	16875.502667	1704.621094	159.923553
19444.424096	16875.502667	1703.600586	156.765900
19444.424096	16875.502667	1702.581055	319.938019
19444.424096	16875.502667	1701.561523	286.172150
19444.424096	16875.502667	1700.541016	-190.392548
19444.424096	16875.502667	1699.520508	108.398773
19444.424096	16875.502667	1698.500000	329.740082
19444.424096	16875.502667	1697.478516	377.678650
19444.424096	16875.502667	1696.458008	221.900970
19444.424096	16875.502667	1695.436523	150.366241
19444.424096	16875.502667	1694.415039	277.687592
19444.424096	16875.502667	1693.393555	348.755280
19444.424096	16875.502667	1692.372070	237.299484
19444.424096	16875.502667	1691.349609	195.976593
19444.424096	16875.502667	1690.327148	276.191986
19444.424096	16875.502667	1689.304688	230.088898
19444.424096	16875.502667	1688.282227	455.058655
19444.424096	16875.502667	1687.259766	614.459351
19444.424096	16875.502667	1686.236328	364.891541
19444.424096	16875.502667	1685.213867	341.948181
19444.424096	16875.502667	1684.190430	585.182190
19444.424096	16875.502667	1683.166016	447.673157
19444.424096	16875.502667	1682.142578	466.582794
19444.424096	16875.502667	1681.119141	513.442261
19444.424096	16875.502667	1680.094727	504.218964
19444.424096	16875.502667	1679.070313	340.965424
19444.424096	16875.502667	1678.045898	450.647247
19444.424096	16875.502667	1677.020508	697.830383
19444.424096	16875.502667	1675.996094	613.769897
19444.424096	16875.502667	1674.970703	702.204407
19444.424096	16875.502667	1673.945313	564.464966
19444.424096	16875.502667	1672.919922	620.157776
19444.424096	16875.502667	1671.893555	813.243225
19444.424096	16875.502667	1670.868164	850.143799
19444.424096	16875.502667	1669.841797	817.105469
19444.424096	16875.502667	1668.815430	669.936157
19444.424096	16875.502667	1667.789063	518.126953
19444.424096	16875.502667	1666.761719	831.869385
19444.424096	16875.502667	1665.735352	696.297302
19444.424096	16875.502667	1664.708008	865.544128
19444.424096	16875.502667	1663.680664	804.375854
19444.424096	16875.502667	1662.653320	1054.868652
19444.424096	16875.502667	1661.625000	1061.043945
19444.424096	16875.502667	1660.597656	1195.066284
19444.424096	16875.502667	1659.569336	1140.703491
19444.424096	16875.502667	1658.541016	853.915222
19444.424096	16875.502667	1657.512695	1106.296997
19444.424096	16875.502667	1656.483398	1140.156494
19444.424096	16875.502667	1655.455078	1074.102539
19444.424096	16875.502667	1654.425781	1008.033020
19444.424096	16875.502667	1653.396484	995.363464
19444.424096	16875.502667	1652.366211	1087.124146
19444.424096	16875.502667	1651.336914	1127.770142
19444.424096	16875.502667	1650.306641	1156.760132
19444.424096	16875.502667	1649.276367	1023.307922
19444.424096	16875.502667	1648.246094	1001.224121
19444.424096	16875.502667	1647.215820	1030.146118
19444.424096	16875.502667	1646.185547	1239.895386
19444.424096	16875.502667	1645.154297	1206.110229
19444.424096	16875.502667	1644.123047	1322.977295
19444.424096	16875.502667	1643.091797	1270.607666
19444.424096	16875.502667	1642.060547	1220.555176
19444.424096	16875.502667	1641.028320	1274.736450
19444.424096	16875.502667	1639.997070	1294.146973
19444.424096	16875.502667	1638.964844	1188.480591
19444.424096	16875.502667	1637.931641	1569.009766
19444.424096	16875.502667	1636.899414	1551.257202
19444.424096	16875.502667	1635.867188	1565.897461
19444.424096	16875.502667	1634.833984	1700.825806
19444.424096	16875.502667	1633.800781	1652.934937
19444.424096	16875.502667	1632.767578	1579.608643
19444.424096	16875.502667	1631.734375	1369.865356
19444.424096	16875.502667	1630.700195	1432.999878
19444.424096	16875.502667	1629.666016	1264.944824
19444.424096	16875.502667	1628.631836	1346.546997
19444.424096	16875.502667	1627.597656	1349.547363
19444.424096	16875.502667	1626.563477	1465.740967
19444.424096	16875.502667	1625.528320	1623.449829
19444.424096	16875.502667	1624.493164	1400.057739
19444.424096	16875.502667	1623.458008	1396.089233
19444.424096	16875.502667	1622.422852	1396.737549
19444.424096	16875.502667	1621.387695	1505.858032
19444.424096	16875.502667	1620.351563	1333.409668
19444.424096	16875.502667	1619.315430	1364.049683
19444.424096	16875.502667	1618.279297	1604.579834
19444.424096	16875.502667	1617.243164	1409.155273
19444.424096	16875.502667	1616.207031	1462.825928
19444.424096	16875.502667	1615.169922	1537.217529
19444.424096	16875.502667	1614.132813	1611.585938
19444.424096	16875.502667	1613.095703	1796.539673
19444.424096	16875.502667	1612.058594	1810.938965
19444.424096	16875.502667	1611.020508	1836.848022
19444.424096	16875.502667	1609.983398	1947.977173
19444.424096	16875.502667	1608.945313	1971.565430
19444.424096	16875.502667	1607.907227	1870.840210
19444.424096	16875.502667	1606.868164	2046.357178
19444.424096	16875.502667	1605.830078	1733.968018
19444.424096	16875.502667	1604.791016	1828.941040
19444.424096	16875.502667	1603.751953	1774.371094
19444.424096	16875.502667	1602.712891	2184.413330
19444.424096	16875.502667	1601.673828	2325.278564
19444.424096	16875.502667	1600.633789	2004.000244
19444.424096	16875.502667	1599.594727	2085.118896
19444.424096	16875.502667	1598.554688	2026.031372
19444.424096	16875.502667	1597.513672	2192.146729
19444.424096	16875.502667	1596.473633	2257.151123
19444.424096	16875.502667	1595.433594	2211.907959
19444.424096	16875.502667	1594.392578	2123.065918
19444.424096	16875.502667	1593.351563	1960.815918
19444.424096	16875.502667	1592.310547	1895.059448
