#X		#Y		#Wave		#Intensity
19489.902713	16909.562500	2000.043945	536.372131
19489.902713	16909.562500	1999.080078	156.764801
19489.902713	16909.562500	1998.116211	398.183319
19489.902713	16909.562500	1997.151367	331.171814
19489.902713	16909.562500	1996.186523	216.050293
19489.902713	16909.562500	1995.222656	97.416893
19489.902713	16909.562500	1994.256836	505.194916
19489.902713	16909.562500	1993.291992	161.342392
19489.902713	16909.562500	1992.327148	-134.080200
19489.902713	16909.562500	1991.361328	22.335289
19489.902713	16909.562500	1990.395508	-117.114708
19489.902713	16909.562500	1989.429688	254.384781
19489.902713	16909.562500	1988.463867	23.202143
19489.902713	16909.562500	1987.497070	-65.833084
19489.902713	16909.562500	1986.531250	-203.235703
19489.902713	16909.562500	1985.564453	-102.209549
19489.902713	16909.562500	1984.597656	-52.154499
19489.902713	16909.562500	1983.630859	-25.880486
19489.902713	16909.562500	1982.664063	-18.468254
19489.902713	16909.562500	1981.696289	-279.496552
19489.902713	16909.562500	1980.728516	-211.011261
19489.902713	16909.562500	1979.761719	-391.172546
19489.902713	16909.562500	1978.792969	101.208267
19489.902713	16909.562500	1977.825195	206.556030
19489.902713	16909.562500	1976.857422	65.759605
19489.902713	16909.562500	1975.888672	182.404785
19489.902713	16909.562500	1974.919922	20.862106
19489.902713	16909.562500	1973.951172	-88.145027
19489.902713	16909.562500	1972.982422	-90.406342
19489.902713	16909.562500	1972.013672	-153.705109
19489.902713	16909.562500	1971.043945	-130.090240
19489.902713	16909.562500	1970.075195	-12.234900
19489.902713	16909.562500	1969.105469	-120.647842
19489.902713	16909.562500	1968.135742	-21.490635
19489.902713	16909.562500	1967.165039	142.192001
19489.902713	16909.562500	1966.195313	-105.115242
19489.902713	16909.562500	1965.224609	261.418976
19489.902713	16909.562500	1964.253906	-209.021362
19489.902713	16909.562500	1963.283203	-154.445450
19489.902713	16909.562500	1962.312500	149.128189
19489.902713	16909.562500	1961.341797	17.329941
19489.902713	16909.562500	1960.370117	-138.667770
19489.902713	16909.562500	1959.399414	-158.964844
19489.902713	16909.562500	1958.427734	-267.486725
19489.902713	16909.562500	1957.455078	-144.483170
19489.902713	16909.562500	1956.483398	69.726601
19489.902713	16909.562500	1955.511719	-138.731049
19489.902713	16909.562500	1954.539063	-130.556381
19489.902713	16909.562500	1953.566406	49.870998
19489.902713	16909.562500	1952.593750	-280.625244
19489.902713	16909.562500	1951.621094	5.812205
19489.902713	16909.562500	1950.647461	105.663177
19489.902713	16909.562500	1949.674805	77.943970
19489.902713	16909.562500	1948.701172	-6.076515
19489.902713	16909.562500	1947.727539	-131.657700
19489.902713	16909.562500	1946.753906	346.700195
19489.902713	16909.562500	1945.780273	-100.117874
19489.902713	16909.562500	1944.805664	-31.445522
19489.902713	16909.562500	1943.831055	-46.113590
19489.902713	16909.562500	1942.856445	160.025589
19489.902713	16909.562500	1941.881836	0.793880
19489.902713	16909.562500	1940.907227	-192.650604
19489.902713	16909.562500	1939.932617	-50.176773
19489.902713	16909.562500	1938.957031	-113.578796
19489.902713	16909.562500	1937.981445	53.380405
19489.902713	16909.562500	1937.005859	-142.280411
19489.902713	16909.562500	1936.030273	29.524204
19489.902713	16909.562500	1935.054688	208.598785
19489.902713	16909.562500	1934.078125	-222.060333
19489.902713	16909.562500	1933.101563	-6.335731
19489.902713	16909.562500	1932.125000	89.339676
19489.902713	16909.562500	1931.148438	-10.833920
19489.902713	16909.562500	1930.171875	-49.863098
19489.902713	16909.562500	1929.194336	-64.476982
19489.902713	16909.562500	1928.217773	-130.529007
19489.902713	16909.562500	1927.240234	-20.576147
19489.902713	16909.562500	1926.262695	194.368408
19489.902713	16909.562500	1925.284180	-60.162113
19489.902713	16909.562500	1924.306641	-124.089729
19489.902713	16909.562500	1923.328125	-58.602085
19489.902713	16909.562500	1922.350586	236.373840
19489.902713	16909.562500	1921.372070	-130.790985
19489.902713	16909.562500	1920.392578	-136.522934
19489.902713	16909.562500	1919.414063	101.758293
19489.902713	16909.562500	1918.434570	90.821960
19489.902713	16909.562500	1917.456055	-30.094355
19489.902713	16909.562500	1916.476563	-155.995010
19489.902713	16909.562500	1915.497070	-18.514399
19489.902713	16909.562500	1914.516602	-8.085201
19489.902713	16909.562500	1913.537109	-0.274423
19489.902713	16909.562500	1912.556641	170.737320
19489.902713	16909.562500	1911.576172	224.486923
19489.902713	16909.562500	1910.595703	178.101242
19489.902713	16909.562500	1909.615234	194.906479
19489.902713	16909.562500	1908.633789	238.325470
19489.902713	16909.562500	1907.653320	47.663612
19489.902713	16909.562500	1906.671875	129.672745
19489.902713	16909.562500	1905.690430	228.497406
19489.902713	16909.562500	1904.708984	193.173645
19489.902713	16909.562500	1903.727539	38.376369
19489.902713	16909.562500	1902.745117	-75.194473
19489.902713	16909.562500	1901.762695	27.636366
19489.902713	16909.562500	1900.780273	239.696594
19489.902713	16909.562500	1899.797852	346.862854
19489.902713	16909.562500	1898.815430	-98.292725
19489.902713	16909.562500	1897.832031	210.279083
19489.902713	16909.562500	1896.849609	175.725815
19489.902713	16909.562500	1895.866211	17.001457
19489.902713	16909.562500	1894.882813	-161.333466
19489.902713	16909.562500	1893.898438	-9.382463
19489.902713	16909.562500	1892.915039	-100.648010
19489.902713	16909.562500	1891.930664	135.781540
19489.902713	16909.562500	1890.947266	267.469299
19489.902713	16909.562500	1889.962891	265.339874
19489.902713	16909.562500	1888.977539	216.856613
19489.902713	16909.562500	1887.993164	-30.859032
19489.902713	16909.562500	1887.007813	160.487610
19489.902713	16909.562500	1886.023438	140.456650
19489.902713	16909.562500	1885.038086	180.834213
19489.902713	16909.562500	1884.051758	-84.613136
19489.902713	16909.562500	1883.066406	28.059208
19489.902713	16909.562500	1882.081055	385.301666
19489.902713	16909.562500	1881.094727	286.491516
19489.902713	16909.562500	1880.108398	437.086975
19489.902713	16909.562500	1879.122070	173.068604
19489.902713	16909.562500	1878.135742	80.905357
19489.902713	16909.562500	1877.148438	29.708340
19489.902713	16909.562500	1876.162109	63.049084
19489.902713	16909.562500	1875.174805	1.713825
19489.902713	16909.562500	1874.187500	341.990753
19489.902713	16909.562500	1873.199219	-48.999943
19489.902713	16909.562500	1872.211914	152.758835
19489.902713	16909.562500	1871.223633	-127.237350
19489.902713	16909.562500	1870.236328	-27.603167
19489.902713	16909.562500	1869.248047	134.634689
19489.902713	16909.562500	1868.258789	-201.523529
19489.902713	16909.562500	1867.270508	-184.831573
19489.902713	16909.562500	1866.282227	264.265839
19489.902713	16909.562500	1865.292969	103.985214
19489.902713	16909.562500	1864.303711	-148.280716
19489.902713	16909.562500	1863.314453	-28.667486
19489.902713	16909.562500	1862.324219	-32.511799
19489.902713	16909.562500	1861.334961	-0.353448
19489.902713	16909.562500	1860.344727	-195.384796
19489.902713	16909.562500	1859.354492	386.688568
19489.902713	16909.562500	1858.364258	261.198212
19489.902713	16909.562500	1857.374023	282.719788
19489.902713	16909.562500	1856.383789	291.950134
19489.902713	16909.562500	1855.392578	-46.384178
19489.902713	16909.562500	1854.401367	-11.014810
19489.902713	16909.562500	1853.410156	-163.942062
19489.902713	16909.562500	1852.418945	-20.515856
19489.902713	16909.562500	1851.426758	81.661545
19489.902713	16909.562500	1850.435547	-115.216011
19489.902713	16909.562500	1849.443359	-112.265091
19489.902713	16909.562500	1848.451172	22.961868
19489.902713	16909.562500	1847.458984	-511.605591
19489.902713	16909.562500	1846.466797	184.286316
19489.902713	16909.562500	1845.473633	260.975677
19489.902713	16909.562500	1844.480469	-52.508984
19489.902713	16909.562500	1843.487305	-231.308319
19489.902713	16909.562500	1842.494141	-258.650879
19489.902713	16909.562500	1841.500977	228.637115
19489.902713	16909.562500	1840.506836	205.625366
19489.902713	16909.562500	1839.513672	112.701714
19489.902713	16909.562500	1838.519531	-6.838426
19489.902713	16909.562500	1837.525391	39.345493
19489.902713	16909.562500	1836.530273	282.392792
19489.902713	16909.562500	1835.536133	-8.285723
19489.902713	16909.562500	1834.541016	-46.786602
19489.902713	16909.562500	1833.545898	375.743164
19489.902713	16909.562500	1832.550781	79.848625
19489.902713	16909.562500	1831.555664	88.836494
19489.902713	16909.562500	1830.560547	-180.839981
19489.902713	16909.562500	1829.564453	-64.157837
19489.902713	16909.562500	1828.568359	-305.265137
19489.902713	16909.562500	1827.572266	230.939850
19489.902713	16909.562500	1826.576172	174.244324
19489.902713	16909.562500	1825.580078	222.935547
19489.902713	16909.562500	1824.583008	-119.444778
19489.902713	16909.562500	1823.585938	274.190521
19489.902713	16909.562500	1822.588867	3.519273
19489.902713	16909.562500	1821.591797	53.942043
19489.902713	16909.562500	1820.594727	-25.205109
19489.902713	16909.562500	1819.596680	-308.129272
19489.902713	16909.562500	1818.599609	110.734329
19489.902713	16909.562500	1817.601563	-162.835358
19489.902713	16909.562500	1816.603516	-359.828308
19489.902713	16909.562500	1815.604492	-147.545883
19489.902713	16909.562500	1814.606445	-229.873398
19489.902713	16909.562500	1813.607422	-147.208832
19489.902713	16909.562500	1812.608398	-146.063065
19489.902713	16909.562500	1811.609375	122.858902
19489.902713	16909.562500	1810.610352	-43.741684
19489.902713	16909.562500	1809.610352	-265.428772
19489.902713	16909.562500	1808.611328	-169.175980
19489.902713	16909.562500	1807.611328	-97.011772
19489.902713	16909.562500	1806.611328	-130.157272
19489.902713	16909.562500	1805.610352	-84.585152
19489.902713	16909.562500	1804.610352	-359.260284
19489.902713	16909.562500	1803.609375	-120.442589
19489.902713	16909.562500	1802.608398	-70.493401
19489.902713	16909.562500	1801.607422	-333.461548
19489.902713	16909.562500	1800.606445	43.309166
19489.902713	16909.562500	1799.605469	-45.585594
19489.902713	16909.562500	1798.603516	-332.638885
19489.902713	16909.562500	1797.601563	-94.818939
19489.902713	16909.562500	1796.599609	-277.022339
19489.902713	16909.562500	1795.597656	-146.846817
19489.902713	16909.562500	1794.595703	-128.896042
19489.902713	16909.562500	1793.592773	-63.394104
19489.902713	16909.562500	1792.589844	-157.720901
19489.902713	16909.562500	1791.587891	-278.310638
19489.902713	16909.562500	1790.583984	-217.910187
19489.902713	16909.562500	1789.581055	-305.310181
19489.902713	16909.562500	1788.577148	-352.303162
19489.902713	16909.562500	1787.574219	-101.696487
19489.902713	16909.562500	1786.570313	-120.329926
19489.902713	16909.562500	1785.566406	-212.842621
19489.902713	16909.562500	1784.561523	-464.883423
19489.902713	16909.562500	1783.557617	-14.954444
19489.902713	16909.562500	1782.552734	230.101898
19489.902713	16909.562500	1781.547852	-260.003693
19489.902713	16909.562500	1780.542969	-19.921934
19489.902713	16909.562500	1779.538086	-1.137612
19489.902713	16909.562500	1778.532227	-110.833321
19489.902713	16909.562500	1777.527344	119.329483
19489.902713	16909.562500	1776.521484	4.741745
19489.902713	16909.562500	1775.515625	-24.348379
19489.902713	16909.562500	1774.508789	41.493362
19489.902713	16909.562500	1773.502930	47.879402
19489.902713	16909.562500	1772.496094	199.016495
19489.902713	16909.562500	1771.489258	176.717453
19489.902713	16909.562500	1770.482422	204.202423
19489.902713	16909.562500	1769.475586	319.414215
19489.902713	16909.562500	1768.467773	462.968231
19489.902713	16909.562500	1767.460938	174.666977
19489.902713	16909.562500	1766.453125	106.970291
19489.902713	16909.562500	1765.445313	198.115051
19489.902713	16909.562500	1764.437500	104.231461
19489.902713	16909.562500	1763.428711	455.952148
19489.902713	16909.562500	1762.420898	172.332016
19489.902713	16909.562500	1761.412109	256.023621
19489.902713	16909.562500	1760.403320	62.437878
19489.902713	16909.562500	1759.393555	397.062592
19489.902713	16909.562500	1758.384766	212.884628
19489.902713	16909.562500	1757.375000	-35.227085
19489.902713	16909.562500	1756.366211	62.349190
19489.902713	16909.562500	1755.356445	254.489990
19489.902713	16909.562500	1754.345703	496.180664
19489.902713	16909.562500	1753.335938	387.588104
19489.902713	16909.562500	1752.325195	461.111938
19489.902713	16909.562500	1751.315430	404.499298
19489.902713	16909.562500	1750.304688	291.091003
19489.902713	16909.562500	1749.292969	274.591125
19489.902713	16909.562500	1748.282227	310.073059
19489.902713	16909.562500	1747.270508	565.260254
19489.902713	16909.562500	1746.259766	569.866821
19489.902713	16909.562500	1745.248047	536.614075
19489.902713	16909.562500	1744.235352	406.473541
19489.902713	16909.562500	1743.223633	422.770874
19489.902713	16909.562500	1742.211914	358.748901
19489.902713	16909.562500	1741.199219	377.310486
19489.902713	16909.562500	1740.186523	258.943176
19489.902713	16909.562500	1739.173828	3.721979
19489.902713	16909.562500	1738.160156	29.286007
19489.902713	16909.562500	1737.147461	130.304855
19489.902713	16909.562500	1736.133789	54.356575
19489.902713	16909.562500	1735.120117	60.928719
19489.902713	16909.562500	1734.106445	53.320881
19489.902713	16909.562500	1733.091797	168.224686
19489.902713	16909.562500	1732.078125	-20.916664
19489.902713	16909.562500	1731.063477	-292.500031
19489.902713	16909.562500	1730.048828	-90.533905
19489.902713	16909.562500	1729.034180	231.437469
19489.902713	16909.562500	1728.019531	-4.807883
19489.902713	16909.562500	1727.003906	272.214447
19489.902713	16909.562500	1725.988281	-295.910278
19489.902713	16909.562500	1724.972656	6.894718
19489.902713	16909.562500	1723.957031	-158.672623
19489.902713	16909.562500	1722.941406	682.646118
19489.902713	16909.562500	1721.924805	-393.280060
19489.902713	16909.562500	1720.909180	243.127060
19489.902713	16909.562500	1719.892578	9.337293
19489.902713	16909.562500	1718.875977	196.381241
19489.902713	16909.562500	1717.858398	-152.536255
19489.902713	16909.562500	1716.841797	133.110352
19489.902713	16909.562500	1715.824219	49.763374
19489.902713	16909.562500	1714.806641	346.941681
19489.902713	16909.562500	1713.789063	348.085266
19489.902713	16909.562500	1712.770508	372.666443
19489.902713	16909.562500	1711.752930	190.658081
19489.902713	16909.562500	1710.734375	579.012085
19489.902713	16909.562500	1709.715820	340.655548
19489.902713	16909.562500	1708.697266	186.833069
19489.902713	16909.562500	1707.678711	201.941620
19489.902713	16909.562500	1706.659180	519.543213
19489.902713	16909.562500	1705.640625	719.784668
19489.902713	16909.562500	1704.621094	922.256287
19489.902713	16909.562500	1703.600586	728.493774
19489.902713	16909.562500	1702.581055	994.124268
19489.902713	16909.562500	1701.561523	919.903137
19489.902713	16909.562500	1700.541016	1161.917847
19489.902713	16909.562500	1699.520508	1115.747559
19489.902713	16909.562500	1698.500000	1404.434082
19489.902713	16909.562500	1697.478516	1311.359253
19489.902713	16909.562500	1696.458008	1744.994385
19489.902713	16909.562500	1695.436523	1455.277222
19489.902713	16909.562500	1694.415039	1518.972778
19489.902713	16909.562500	1693.393555	2024.780762
19489.902713	16909.562500	1692.372070	2104.689453
19489.902713	16909.562500	1691.349609	1508.708496
19489.902713	16909.562500	1690.327148	1719.571289
19489.902713	16909.562500	1689.304688	1790.084839
19489.902713	16909.562500	1688.282227	2271.899902
19489.902713	16909.562500	1687.259766	2155.319580
19489.902713	16909.562500	1686.236328	2342.468018
19489.902713	16909.562500	1685.213867	2440.793213
19489.902713	16909.562500	1684.190430	2475.996338
19489.902713	16909.562500	1683.166016	2714.288574
19489.902713	16909.562500	1682.142578	3122.918457
19489.902713	16909.562500	1681.119141	2618.783936
19489.902713	16909.562500	1680.094727	2653.864258
19489.902713	16909.562500	1679.070313	3003.891846
19489.902713	16909.562500	1678.045898	2908.237549
19489.902713	16909.562500	1677.020508	3008.498535
19489.902713	16909.562500	1675.996094	3073.755371
19489.902713	16909.562500	1674.970703	3218.224854
19489.902713	16909.562500	1673.945313	3500.150635
19489.902713	16909.562500	1672.919922	3204.021484
19489.902713	16909.562500	1671.893555	3243.488525
19489.902713	16909.562500	1670.868164	3299.265381
19489.902713	16909.562500	1669.841797	3271.143311
19489.902713	16909.562500	1668.815430	3510.818848
19489.902713	16909.562500	1667.789063	3394.190674
19489.902713	16909.562500	1666.761719	3452.156738
19489.902713	16909.562500	1665.735352	3449.605713
19489.902713	16909.562500	1664.708008	3521.489258
19489.902713	16909.562500	1663.680664	3725.945557
19489.902713	16909.562500	1662.653320	3711.677734
19489.902713	16909.562500	1661.625000	3913.662109
19489.902713	16909.562500	1660.597656	4187.662109
19489.902713	16909.562500	1659.569336	4570.789551
19489.902713	16909.562500	1658.541016	4077.565674
19489.902713	16909.562500	1657.512695	4618.568359
19489.902713	16909.562500	1656.483398	4478.633789
19489.902713	16909.562500	1655.455078	4631.442871
19489.902713	16909.562500	1654.425781	4486.908203
19489.902713	16909.562500	1653.396484	4398.156738
19489.902713	16909.562500	1652.366211	4650.668457
19489.902713	16909.562500	1651.336914	5000.581055
19489.902713	16909.562500	1650.306641	5150.772949
19489.902713	16909.562500	1649.276367	5177.944824
19489.902713	16909.562500	1648.246094	5307.166504
19489.902713	16909.562500	1647.215820	5334.298340
19489.902713	16909.562500	1646.185547	5280.262695
19489.902713	16909.562500	1645.154297	5274.914063
19489.902713	16909.562500	1644.123047	5327.515625
19489.902713	16909.562500	1643.091797	5838.938477
19489.902713	16909.562500	1642.060547	5775.566406
19489.902713	16909.562500	1641.028320	5834.977539
19489.902713	16909.562500	1639.997070	5746.160645
19489.902713	16909.562500	1638.964844	5907.448242
19489.902713	16909.562500	1637.931641	5654.242188
19489.902713	16909.562500	1636.899414	5530.786621
19489.902713	16909.562500	1635.867188	5812.374512
19489.902713	16909.562500	1634.833984	5874.028809
19489.902713	16909.562500	1633.800781	5678.883789
19489.902713	16909.562500	1632.767578	5506.947266
19489.902713	16909.562500	1631.734375	5695.829590
19489.902713	16909.562500	1630.700195	6023.342773
19489.902713	16909.562500	1629.666016	5742.800293
19489.902713	16909.562500	1628.631836	5915.351563
19489.902713	16909.562500	1627.597656	5803.637207
19489.902713	16909.562500	1626.563477	5851.376953
19489.902713	16909.562500	1625.528320	5806.695313
19489.902713	16909.562500	1624.493164	5868.273438
19489.902713	16909.562500	1623.458008	5793.611328
19489.902713	16909.562500	1622.422852	5811.331055
19489.902713	16909.562500	1621.387695	5549.788574
19489.902713	16909.562500	1620.351563	6065.972656
19489.902713	16909.562500	1619.315430	5843.711426
19489.902713	16909.562500	1618.279297	5806.076660
19489.902713	16909.562500	1617.243164	6089.029785
19489.902713	16909.562500	1616.207031	5781.625488
19489.902713	16909.562500	1615.169922	5550.407715
19489.902713	16909.562500	1614.132813	5833.271484
19489.902713	16909.562500	1613.095703	5818.780273
19489.902713	16909.562500	1612.058594	5944.848145
19489.902713	16909.562500	1611.020508	5697.703125
19489.902713	16909.562500	1609.983398	5971.177246
19489.902713	16909.562500	1608.945313	5899.158203
19489.902713	16909.562500	1607.907227	5951.502441
19489.902713	16909.562500	1606.868164	6167.245117
19489.902713	16909.562500	1605.830078	6155.125488
19489.902713	16909.562500	1604.791016	6239.644531
19489.902713	16909.562500	1603.751953	6271.243652
19489.902713	16909.562500	1602.712891	6344.252930
19489.902713	16909.562500	1601.673828	5909.085938
19489.902713	16909.562500	1600.633789	6053.435547
19489.902713	16909.562500	1599.594727	5926.548340
19489.902713	16909.562500	1598.554688	6024.929199
19489.902713	16909.562500	1597.513672	6378.321289
19489.902713	16909.562500	1596.473633	5923.009766
19489.902713	16909.562500	1595.433594	5929.550781
