#X		#Y		#Wave		#Intensity
19351.075957	16857.128500	2000.043945	-625.106262
19351.075957	16857.128500	1999.080078	-61.571720
19351.075957	16857.128500	1998.116211	-279.444092
19351.075957	16857.128500	1997.151367	178.725342
19351.075957	16857.128500	1996.186523	88.565071
19351.075957	16857.128500	1995.222656	186.096359
19351.075957	16857.128500	1994.256836	203.840134
19351.075957	16857.128500	1993.291992	275.469482
19351.075957	16857.128500	1992.327148	-420.975677
19351.075957	16857.128500	1991.361328	-82.942268
19351.075957	16857.128500	1990.395508	103.497002
19351.075957	16857.128500	1989.429688	-180.784714
19351.075957	16857.128500	1988.463867	175.335480
19351.075957	16857.128500	1987.497070	553.142029
19351.075957	16857.128500	1986.531250	-234.504349
19351.075957	16857.128500	1985.564453	340.154236
19351.075957	16857.128500	1984.597656	135.429352
19351.075957	16857.128500	1983.630859	422.231750
19351.075957	16857.128500	1982.664063	538.010925
19351.075957	16857.128500	1981.696289	164.148880
19351.075957	16857.128500	1980.728516	237.184601
19351.075957	16857.128500	1979.761719	611.111572
19351.075957	16857.128500	1978.792969	510.463196
19351.075957	16857.128500	1977.825195	525.517151
19351.075957	16857.128500	1976.857422	355.083130
19351.075957	16857.128500	1975.888672	-170.995590
19351.075957	16857.128500	1974.919922	-6.268854
19351.075957	16857.128500	1973.951172	239.495987
19351.075957	16857.128500	1972.982422	450.336090
19351.075957	16857.128500	1972.013672	623.815674
19351.075957	16857.128500	1971.043945	801.896606
19351.075957	16857.128500	1970.075195	198.120346
19351.075957	16857.128500	1969.105469	-173.990158
19351.075957	16857.128500	1968.135742	582.480835
19351.075957	16857.128500	1967.165039	412.001038
19351.075957	16857.128500	1966.195313	751.261841
19351.075957	16857.128500	1965.224609	141.916122
19351.075957	16857.128500	1964.253906	150.684586
19351.075957	16857.128500	1963.283203	479.301636
19351.075957	16857.128500	1962.312500	721.431152
19351.075957	16857.128500	1961.341797	458.729034
19351.075957	16857.128500	1960.370117	311.597717
19351.075957	16857.128500	1959.399414	1030.331909
19351.075957	16857.128500	1958.427734	481.830353
19351.075957	16857.128500	1957.455078	752.341309
19351.075957	16857.128500	1956.483398	678.324219
19351.075957	16857.128500	1955.511719	712.344421
19351.075957	16857.128500	1954.539063	102.216301
19351.075957	16857.128500	1953.566406	735.676575
19351.075957	16857.128500	1952.593750	430.160919
19351.075957	16857.128500	1951.621094	849.315735
19351.075957	16857.128500	1950.647461	263.637817
19351.075957	16857.128500	1949.674805	250.204895
19351.075957	16857.128500	1948.701172	592.684265
19351.075957	16857.128500	1947.727539	191.121140
19351.075957	16857.128500	1946.753906	-171.135605
19351.075957	16857.128500	1945.780273	38.387653
19351.075957	16857.128500	1944.805664	-7.407556
19351.075957	16857.128500	1943.831055	582.035706
19351.075957	16857.128500	1942.856445	165.635925
19351.075957	16857.128500	1941.881836	345.151459
19351.075957	16857.128500	1940.907227	311.227173
19351.075957	16857.128500	1939.932617	735.593689
19351.075957	16857.128500	1938.957031	-90.102654
19351.075957	16857.128500	1937.981445	30.222145
19351.075957	16857.128500	1937.005859	214.126541
19351.075957	16857.128500	1936.030273	-187.487442
19351.075957	16857.128500	1935.054688	-481.268616
19351.075957	16857.128500	1934.078125	165.205673
19351.075957	16857.128500	1933.101563	-211.859650
19351.075957	16857.128500	1932.125000	402.397949
19351.075957	16857.128500	1931.148438	407.063538
19351.075957	16857.128500	1930.171875	521.776794
19351.075957	16857.128500	1929.194336	122.736870
19351.075957	16857.128500	1928.217773	31.936499
19351.075957	16857.128500	1927.240234	124.540550
19351.075957	16857.128500	1926.262695	92.390297
19351.075957	16857.128500	1925.284180	-130.417175
19351.075957	16857.128500	1924.306641	113.579498
19351.075957	16857.128500	1923.328125	-355.994568
19351.075957	16857.128500	1922.350586	-53.471024
19351.075957	16857.128500	1921.372070	156.114761
19351.075957	16857.128500	1920.392578	123.854500
19351.075957	16857.128500	1919.414063	228.295319
19351.075957	16857.128500	1918.434570	-16.383711
19351.075957	16857.128500	1917.456055	-341.549591
19351.075957	16857.128500	1916.476563	399.773376
19351.075957	16857.128500	1915.497070	-71.746117
19351.075957	16857.128500	1914.516602	59.413574
19351.075957	16857.128500	1913.537109	61.236832
19351.075957	16857.128500	1912.556641	-17.398796
19351.075957	16857.128500	1911.576172	245.288483
19351.075957	16857.128500	1910.595703	217.815384
19351.075957	16857.128500	1909.615234	-367.735016
19351.075957	16857.128500	1908.633789	479.638855
19351.075957	16857.128500	1907.653320	208.503067
19351.075957	16857.128500	1906.671875	178.605728
19351.075957	16857.128500	1905.690430	126.802475
19351.075957	16857.128500	1904.708984	-187.941162
19351.075957	16857.128500	1903.727539	86.527794
19351.075957	16857.128500	1902.745117	-84.484871
19351.075957	16857.128500	1901.762695	-394.135468
19351.075957	16857.128500	1900.780273	359.510040
19351.075957	16857.128500	1899.797852	212.862213
19351.075957	16857.128500	1898.815430	234.077591
19351.075957	16857.128500	1897.832031	-243.171158
19351.075957	16857.128500	1896.849609	-326.420013
19351.075957	16857.128500	1895.866211	-266.214661
19351.075957	16857.128500	1894.882813	153.639801
19351.075957	16857.128500	1893.898438	-252.762314
19351.075957	16857.128500	1892.915039	174.214676
19351.075957	16857.128500	1891.930664	-185.889160
19351.075957	16857.128500	1890.947266	202.061768
19351.075957	16857.128500	1889.962891	-252.603546
19351.075957	16857.128500	1888.977539	-304.127472
19351.075957	16857.128500	1887.993164	183.148926
19351.075957	16857.128500	1887.007813	-140.211136
19351.075957	16857.128500	1886.023438	-99.556610
19351.075957	16857.128500	1885.038086	-299.039215
19351.075957	16857.128500	1884.051758	59.360191
19351.075957	16857.128500	1883.066406	-21.273844
19351.075957	16857.128500	1882.081055	9.636824
19351.075957	16857.128500	1881.094727	200.521835
19351.075957	16857.128500	1880.108398	-49.725285
19351.075957	16857.128500	1879.122070	75.672256
19351.075957	16857.128500	1878.135742	-33.965832
19351.075957	16857.128500	1877.148438	193.110245
19351.075957	16857.128500	1876.162109	180.340363
19351.075957	16857.128500	1875.174805	351.587982
19351.075957	16857.128500	1874.187500	-58.191036
19351.075957	16857.128500	1873.199219	-344.379852
19351.075957	16857.128500	1872.211914	-156.218292
19351.075957	16857.128500	1871.223633	-118.120468
19351.075957	16857.128500	1870.236328	79.580063
19351.075957	16857.128500	1869.248047	-482.159851
19351.075957	16857.128500	1868.258789	-303.805908
19351.075957	16857.128500	1867.270508	-352.785461
19351.075957	16857.128500	1866.282227	-184.231888
19351.075957	16857.128500	1865.292969	646.397095
19351.075957	16857.128500	1864.303711	36.690174
19351.075957	16857.128500	1863.314453	45.607243
19351.075957	16857.128500	1862.324219	-225.649338
19351.075957	16857.128500	1861.334961	179.294037
19351.075957	16857.128500	1860.344727	91.561714
19351.075957	16857.128500	1859.354492	172.808731
19351.075957	16857.128500	1858.364258	-182.821411
19351.075957	16857.128500	1857.374023	-94.361023
19351.075957	16857.128500	1856.383789	522.376343
19351.075957	16857.128500	1855.392578	65.514610
19351.075957	16857.128500	1854.401367	578.251892
19351.075957	16857.128500	1853.410156	208.294037
19351.075957	16857.128500	1852.418945	814.768921
19351.075957	16857.128500	1851.426758	-278.203583
19351.075957	16857.128500	1850.435547	614.836548
19351.075957	16857.128500	1849.443359	367.915222
19351.075957	16857.128500	1848.451172	311.351746
19351.075957	16857.128500	1847.458984	423.363770
19351.075957	16857.128500	1846.466797	523.258728
19351.075957	16857.128500	1845.473633	411.230499
19351.075957	16857.128500	1844.480469	503.805450
19351.075957	16857.128500	1843.487305	824.931702
19351.075957	16857.128500	1842.494141	496.237061
19351.075957	16857.128500	1841.500977	47.337467
19351.075957	16857.128500	1840.506836	385.094543
19351.075957	16857.128500	1839.513672	484.586365
19351.075957	16857.128500	1838.519531	348.388672
19351.075957	16857.128500	1837.525391	592.004822
19351.075957	16857.128500	1836.530273	78.417320
19351.075957	16857.128500	1835.536133	348.329559
19351.075957	16857.128500	1834.541016	584.465393
19351.075957	16857.128500	1833.545898	537.019775
19351.075957	16857.128500	1832.550781	129.292328
19351.075957	16857.128500	1831.555664	641.313232
19351.075957	16857.128500	1830.560547	783.374207
19351.075957	16857.128500	1829.564453	193.258286
19351.075957	16857.128500	1828.568359	395.246582
19351.075957	16857.128500	1827.572266	613.892639
19351.075957	16857.128500	1826.576172	206.285248
19351.075957	16857.128500	1825.580078	-50.131393
19351.075957	16857.128500	1824.583008	628.722229
19351.075957	16857.128500	1823.585938	365.018219
19351.075957	16857.128500	1822.588867	29.439127
19351.075957	16857.128500	1821.591797	741.253418
19351.075957	16857.128500	1820.594727	616.460022
19351.075957	16857.128500	1819.596680	745.606934
19351.075957	16857.128500	1818.599609	237.477875
19351.075957	16857.128500	1817.601563	471.880676
19351.075957	16857.128500	1816.603516	76.402061
19351.075957	16857.128500	1815.604492	461.433502
19351.075957	16857.128500	1814.606445	94.685112
19351.075957	16857.128500	1813.607422	895.807983
19351.075957	16857.128500	1812.608398	373.459442
19351.075957	16857.128500	1811.609375	518.634644
19351.075957	16857.128500	1810.610352	180.555389
19351.075957	16857.128500	1809.610352	131.882233
19351.075957	16857.128500	1808.611328	37.709099
19351.075957	16857.128500	1807.611328	397.662811
19351.075957	16857.128500	1806.611328	66.729370
19351.075957	16857.128500	1805.610352	667.721497
19351.075957	16857.128500	1804.610352	334.308044
19351.075957	16857.128500	1803.609375	528.806580
19351.075957	16857.128500	1802.608398	159.570801
19351.075957	16857.128500	1801.607422	236.865448
19351.075957	16857.128500	1800.606445	328.369476
19351.075957	16857.128500	1799.605469	-57.585838
19351.075957	16857.128500	1798.603516	188.882034
19351.075957	16857.128500	1797.601563	222.834229
19351.075957	16857.128500	1796.599609	573.930176
19351.075957	16857.128500	1795.597656	345.278656
19351.075957	16857.128500	1794.595703	340.757813
19351.075957	16857.128500	1793.592773	379.070160
19351.075957	16857.128500	1792.589844	174.152374
19351.075957	16857.128500	1791.587891	238.500107
19351.075957	16857.128500	1790.583984	319.428680
19351.075957	16857.128500	1789.581055	83.387215
19351.075957	16857.128500	1788.577148	1062.042480
19351.075957	16857.128500	1787.574219	799.566772
19351.075957	16857.128500	1786.570313	-136.670517
19351.075957	16857.128500	1785.566406	205.615814
19351.075957	16857.128500	1784.561523	43.139294
19351.075957	16857.128500	1783.557617	799.096313
19351.075957	16857.128500	1782.552734	374.680054
19351.075957	16857.128500	1781.547852	38.332298
19351.075957	16857.128500	1780.542969	-233.779388
19351.075957	16857.128500	1779.538086	100.418831
19351.075957	16857.128500	1778.532227	96.839279
19351.075957	16857.128500	1777.527344	454.414001
19351.075957	16857.128500	1776.521484	740.475769
19351.075957	16857.128500	1775.515625	513.138855
19351.075957	16857.128500	1774.508789	-146.532257
19351.075957	16857.128500	1773.502930	139.172607
19351.075957	16857.128500	1772.496094	747.612854
19351.075957	16857.128500	1771.489258	702.848633
19351.075957	16857.128500	1770.482422	123.934479
19351.075957	16857.128500	1769.475586	454.061615
19351.075957	16857.128500	1768.467773	731.766541
19351.075957	16857.128500	1767.460938	271.479706
19351.075957	16857.128500	1766.453125	216.852234
19351.075957	16857.128500	1765.445313	57.800587
19351.075957	16857.128500	1764.437500	197.441864
19351.075957	16857.128500	1763.428711	244.484085
19351.075957	16857.128500	1762.420898	518.917297
19351.075957	16857.128500	1761.412109	499.325470
19351.075957	16857.128500	1760.403320	351.703705
19351.075957	16857.128500	1759.393555	348.529236
19351.075957	16857.128500	1758.384766	428.132813
19351.075957	16857.128500	1757.375000	692.293030
19351.075957	16857.128500	1756.366211	87.434891
19351.075957	16857.128500	1755.356445	166.734970
19351.075957	16857.128500	1754.345703	-9.662315
19351.075957	16857.128500	1753.335938	62.321037
19351.075957	16857.128500	1752.325195	-90.545143
19351.075957	16857.128500	1751.315430	250.833237
19351.075957	16857.128500	1750.304688	341.334991
19351.075957	16857.128500	1749.292969	540.456238
19351.075957	16857.128500	1748.282227	455.748718
19351.075957	16857.128500	1747.270508	366.250885
19351.075957	16857.128500	1746.259766	-32.852203
19351.075957	16857.128500	1745.248047	-524.030273
19351.075957	16857.128500	1744.235352	-16.029263
19351.075957	16857.128500	1743.223633	-25.491695
19351.075957	16857.128500	1742.211914	-313.652313
19351.075957	16857.128500	1741.199219	104.011620
19351.075957	16857.128500	1740.186523	552.091370
19351.075957	16857.128500	1739.173828	-177.564957
19351.075957	16857.128500	1738.160156	-446.989532
19351.075957	16857.128500	1737.147461	19.508492
19351.075957	16857.128500	1736.133789	-169.870255
19351.075957	16857.128500	1735.120117	315.071594
19351.075957	16857.128500	1734.106445	-15.934933
19351.075957	16857.128500	1733.091797	-221.984909
19351.075957	16857.128500	1732.078125	-18.030952
19351.075957	16857.128500	1731.063477	-144.092026
19351.075957	16857.128500	1730.048828	222.119659
19351.075957	16857.128500	1729.034180	58.186783
19351.075957	16857.128500	1728.019531	-89.296181
19351.075957	16857.128500	1727.003906	-177.955994
19351.075957	16857.128500	1725.988281	-160.754440
19351.075957	16857.128500	1724.972656	70.504539
19351.075957	16857.128500	1723.957031	-11.354041
19351.075957	16857.128500	1722.941406	83.158890
19351.075957	16857.128500	1721.924805	-45.888435
19351.075957	16857.128500	1720.909180	-135.005081
19351.075957	16857.128500	1719.892578	-33.731224
19351.075957	16857.128500	1718.875977	-254.625610
19351.075957	16857.128500	1717.858398	-64.233521
19351.075957	16857.128500	1716.841797	-358.051575
19351.075957	16857.128500	1715.824219	-125.597107
19351.075957	16857.128500	1714.806641	78.493446
19351.075957	16857.128500	1713.789063	143.869492
19351.075957	16857.128500	1712.770508	178.618210
19351.075957	16857.128500	1711.752930	102.935310
19351.075957	16857.128500	1710.734375	116.392593
19351.075957	16857.128500	1709.715820	-409.954498
19351.075957	16857.128500	1708.697266	-119.718163
19351.075957	16857.128500	1707.678711	109.340912
19351.075957	16857.128500	1706.659180	-449.768524
19351.075957	16857.128500	1705.640625	-204.474777
19351.075957	16857.128500	1704.621094	-13.265435
19351.075957	16857.128500	1703.600586	-117.534096
19351.075957	16857.128500	1702.581055	-146.849228
19351.075957	16857.128500	1701.561523	283.004883
19351.075957	16857.128500	1700.541016	307.364746
19351.075957	16857.128500	1699.520508	385.513275
19351.075957	16857.128500	1698.500000	-79.696739
19351.075957	16857.128500	1697.478516	14.750780
19351.075957	16857.128500	1696.458008	387.647614
19351.075957	16857.128500	1695.436523	435.032471
19351.075957	16857.128500	1694.415039	63.505070
19351.075957	16857.128500	1693.393555	166.953415
19351.075957	16857.128500	1692.372070	-279.351685
19351.075957	16857.128500	1691.349609	520.879089
19351.075957	16857.128500	1690.327148	-16.621527
19351.075957	16857.128500	1689.304688	287.565826
19351.075957	16857.128500	1688.282227	568.208069
19351.075957	16857.128500	1687.259766	738.861328
19351.075957	16857.128500	1686.236328	439.810760
19351.075957	16857.128500	1685.213867	115.126785
19351.075957	16857.128500	1684.190430	526.155762
19351.075957	16857.128500	1683.166016	845.922363
19351.075957	16857.128500	1682.142578	960.079407
19351.075957	16857.128500	1681.119141	698.373047
19351.075957	16857.128500	1680.094727	203.365509
19351.075957	16857.128500	1679.070313	634.751221
19351.075957	16857.128500	1678.045898	613.395020
19351.075957	16857.128500	1677.020508	857.878662
19351.075957	16857.128500	1675.996094	687.171814
19351.075957	16857.128500	1674.970703	1120.303833
19351.075957	16857.128500	1673.945313	1110.371704
19351.075957	16857.128500	1672.919922	851.052673
19351.075957	16857.128500	1671.893555	696.651184
19351.075957	16857.128500	1670.868164	730.965393
19351.075957	16857.128500	1669.841797	245.860291
19351.075957	16857.128500	1668.815430	547.979980
19351.075957	16857.128500	1667.789063	805.724365
19351.075957	16857.128500	1666.761719	839.886108
19351.075957	16857.128500	1665.735352	899.603455
19351.075957	16857.128500	1664.708008	859.229614
19351.075957	16857.128500	1663.680664	1407.416504
19351.075957	16857.128500	1662.653320	1327.376709
19351.075957	16857.128500	1661.625000	1384.555176
19351.075957	16857.128500	1660.597656	1160.363770
19351.075957	16857.128500	1659.569336	996.686707
19351.075957	16857.128500	1658.541016	740.094116
19351.075957	16857.128500	1657.512695	1654.724487
19351.075957	16857.128500	1656.483398	1509.600586
19351.075957	16857.128500	1655.455078	1401.685425
19351.075957	16857.128500	1654.425781	1463.339722
19351.075957	16857.128500	1653.396484	1285.813354
19351.075957	16857.128500	1652.366211	1389.242676
19351.075957	16857.128500	1651.336914	1764.188110
19351.075957	16857.128500	1650.306641	1370.893311
19351.075957	16857.128500	1649.276367	1323.443970
19351.075957	16857.128500	1648.246094	1728.345947
19351.075957	16857.128500	1647.215820	1942.921143
19351.075957	16857.128500	1646.185547	1429.342896
19351.075957	16857.128500	1645.154297	1912.833862
19351.075957	16857.128500	1644.123047	2036.881958
19351.075957	16857.128500	1643.091797	2515.453857
19351.075957	16857.128500	1642.060547	2247.805176
19351.075957	16857.128500	1641.028320	2587.193359
19351.075957	16857.128500	1639.997070	2403.042236
19351.075957	16857.128500	1638.964844	2640.423584
19351.075957	16857.128500	1637.931641	2018.811890
19351.075957	16857.128500	1636.899414	1946.048828
19351.075957	16857.128500	1635.867188	2407.927002
19351.075957	16857.128500	1634.833984	2050.571533
19351.075957	16857.128500	1633.800781	2348.059814
19351.075957	16857.128500	1632.767578	2323.968262
19351.075957	16857.128500	1631.734375	2651.411621
19351.075957	16857.128500	1630.700195	2627.335205
19351.075957	16857.128500	1629.666016	2404.511963
19351.075957	16857.128500	1628.631836	2209.545654
19351.075957	16857.128500	1627.597656	2550.765625
19351.075957	16857.128500	1626.563477	2774.068115
19351.075957	16857.128500	1625.528320	2572.336670
19351.075957	16857.128500	1624.493164	2534.687500
19351.075957	16857.128500	1623.458008	2649.485596
19351.075957	16857.128500	1622.422852	3396.783447
19351.075957	16857.128500	1621.387695	3227.586914
19351.075957	16857.128500	1620.351563	2673.150146
19351.075957	16857.128500	1619.315430	3062.569824
19351.075957	16857.128500	1618.279297	2932.906738
19351.075957	16857.128500	1617.243164	3149.271484
19351.075957	16857.128500	1616.207031	2696.955078
19351.075957	16857.128500	1615.169922	3132.403564
19351.075957	16857.128500	1614.132813	2631.986816
19351.075957	16857.128500	1613.095703	3198.749756
19351.075957	16857.128500	1612.058594	2866.830322
19351.075957	16857.128500	1611.020508	2885.233643
19351.075957	16857.128500	1609.983398	3219.208984
19351.075957	16857.128500	1608.945313	3320.569336
19351.075957	16857.128500	1607.907227	3435.773682
19351.075957	16857.128500	1606.868164	2846.698730
19351.075957	16857.128500	1605.830078	2968.999268
19351.075957	16857.128500	1604.791016	3217.878906
19351.075957	16857.128500	1603.751953	2622.520020
19351.075957	16857.128500	1602.712891	3421.197266
19351.075957	16857.128500	1601.673828	3058.432129
19351.075957	16857.128500	1600.633789	2808.550293
19351.075957	16857.128500	1599.594727	2758.814941
19351.075957	16857.128500	1598.554688	2787.325928
19351.075957	16857.128500	1597.513672	1938.221558
19351.075957	16857.128500	1596.473633	2759.588867
19351.075957	16857.128500	1595.433594	2836.585938
