#X		#Y		#Wave		#Intensity
19410.200585	16899.251500	2000.043945	-170.251266
19410.200585	16899.251500	1999.080078	-187.422653
19410.200585	16899.251500	1998.116211	155.064041
19410.200585	16899.251500	1997.151367	16.524214
19410.200585	16899.251500	1996.186523	14.167246
19410.200585	16899.251500	1995.222656	133.046738
19410.200585	16899.251500	1994.256836	93.250542
19410.200585	16899.251500	1993.291992	-100.198784
19410.200585	16899.251500	1992.327148	-60.974915
19410.200585	16899.251500	1991.361328	-284.267761
19410.200585	16899.251500	1990.395508	22.038568
19410.200585	16899.251500	1989.429688	46.030083
19410.200585	16899.251500	1988.463867	64.952866
19410.200585	16899.251500	1987.497070	-99.274445
19410.200585	16899.251500	1986.531250	109.889244
19410.200585	16899.251500	1985.564453	91.398247
19410.200585	16899.251500	1984.597656	13.485778
19410.200585	16899.251500	1983.630859	447.159180
19410.200585	16899.251500	1982.664063	336.902283
19410.200585	16899.251500	1981.696289	416.863098
19410.200585	16899.251500	1980.728516	338.606964
19410.200585	16899.251500	1979.761719	79.988441
19410.200585	16899.251500	1978.792969	298.006836
19410.200585	16899.251500	1977.825195	-205.077240
19410.200585	16899.251500	1976.857422	-76.108528
19410.200585	16899.251500	1975.888672	-85.455597
19410.200585	16899.251500	1974.919922	164.232040
19410.200585	16899.251500	1973.951172	253.398438
19410.200585	16899.251500	1972.982422	354.803955
19410.200585	16899.251500	1972.013672	-128.380936
19410.200585	16899.251500	1971.043945	128.294846
19410.200585	16899.251500	1970.075195	7.619833
19410.200585	16899.251500	1969.105469	254.212357
19410.200585	16899.251500	1968.135742	251.758759
19410.200585	16899.251500	1967.165039	71.861984
19410.200585	16899.251500	1966.195313	47.177925
19410.200585	16899.251500	1965.224609	185.031250
19410.200585	16899.251500	1964.253906	86.381683
19410.200585	16899.251500	1963.283203	411.211578
19410.200585	16899.251500	1962.312500	132.780579
19410.200585	16899.251500	1961.341797	181.758392
19410.200585	16899.251500	1960.370117	208.540222
19410.200585	16899.251500	1959.399414	-77.182770
19410.200585	16899.251500	1958.427734	269.354523
19410.200585	16899.251500	1957.455078	-99.940231
19410.200585	16899.251500	1956.483398	610.331177
19410.200585	16899.251500	1955.511719	245.969879
19410.200585	16899.251500	1954.539063	343.823639
19410.200585	16899.251500	1953.566406	296.625397
19410.200585	16899.251500	1952.593750	453.360748
19410.200585	16899.251500	1951.621094	157.995773
19410.200585	16899.251500	1950.647461	692.909180
19410.200585	16899.251500	1949.674805	311.624207
19410.200585	16899.251500	1948.701172	134.248642
19410.200585	16899.251500	1947.727539	160.671494
19410.200585	16899.251500	1946.753906	-252.254745
19410.200585	16899.251500	1945.780273	488.275543
19410.200585	16899.251500	1944.805664	573.461060
19410.200585	16899.251500	1943.831055	320.089050
19410.200585	16899.251500	1942.856445	302.242401
19410.200585	16899.251500	1941.881836	-88.324303
19410.200585	16899.251500	1940.907227	215.041977
19410.200585	16899.251500	1939.932617	-221.954987
19410.200585	16899.251500	1938.957031	0.433918
19410.200585	16899.251500	1937.981445	-29.636948
19410.200585	16899.251500	1937.005859	457.192322
19410.200585	16899.251500	1936.030273	125.758102
19410.200585	16899.251500	1935.054688	303.803070
19410.200585	16899.251500	1934.078125	68.001892
19410.200585	16899.251500	1933.101563	64.832985
19410.200585	16899.251500	1932.125000	191.374832
19410.200585	16899.251500	1931.148438	-208.247299
19410.200585	16899.251500	1930.171875	-245.638565
19410.200585	16899.251500	1929.194336	193.980927
19410.200585	16899.251500	1928.217773	-198.104248
19410.200585	16899.251500	1927.240234	-66.768135
19410.200585	16899.251500	1926.262695	86.514397
19410.200585	16899.251500	1925.284180	577.054382
19410.200585	16899.251500	1924.306641	89.862877
19410.200585	16899.251500	1923.328125	167.272690
19410.200585	16899.251500	1922.350586	435.193298
19410.200585	16899.251500	1921.372070	307.332397
19410.200585	16899.251500	1920.392578	240.568878
19410.200585	16899.251500	1919.414063	132.312164
19410.200585	16899.251500	1918.434570	307.262054
19410.200585	16899.251500	1917.456055	-10.875216
19410.200585	16899.251500	1916.476563	-6.790493
19410.200585	16899.251500	1915.497070	251.021591
19410.200585	16899.251500	1914.516602	145.281845
19410.200585	16899.251500	1913.537109	378.563721
19410.200585	16899.251500	1912.556641	433.758148
19410.200585	16899.251500	1911.576172	554.749451
19410.200585	16899.251500	1910.595703	300.314606
19410.200585	16899.251500	1909.615234	89.836205
19410.200585	16899.251500	1908.633789	-52.344013
19410.200585	16899.251500	1907.653320	214.780930
19410.200585	16899.251500	1906.671875	-110.058342
19410.200585	16899.251500	1905.690430	83.905151
19410.200585	16899.251500	1904.708984	-11.942257
19410.200585	16899.251500	1903.727539	269.547485
19410.200585	16899.251500	1902.745117	156.645676
19410.200585	16899.251500	1901.762695	124.080162
19410.200585	16899.251500	1900.780273	-212.602600
19410.200585	16899.251500	1899.797852	-69.977272
19410.200585	16899.251500	1898.815430	488.459595
19410.200585	16899.251500	1897.832031	-8.614643
19410.200585	16899.251500	1896.849609	12.299287
19410.200585	16899.251500	1895.866211	268.970642
19410.200585	16899.251500	1894.882813	360.279663
19410.200585	16899.251500	1893.898438	208.571594
19410.200585	16899.251500	1892.915039	-169.021454
19410.200585	16899.251500	1891.930664	-31.574125
19410.200585	16899.251500	1890.947266	416.627777
19410.200585	16899.251500	1889.962891	-244.904495
19410.200585	16899.251500	1888.977539	-119.702843
19410.200585	16899.251500	1887.993164	-414.447540
19410.200585	16899.251500	1887.007813	14.020966
19410.200585	16899.251500	1886.023438	187.561508
19410.200585	16899.251500	1885.038086	285.825745
19410.200585	16899.251500	1884.051758	352.512177
19410.200585	16899.251500	1883.066406	-196.735062
19410.200585	16899.251500	1882.081055	-139.731125
19410.200585	16899.251500	1881.094727	-182.138947
19410.200585	16899.251500	1880.108398	298.890594
19410.200585	16899.251500	1879.122070	229.716263
19410.200585	16899.251500	1878.135742	-45.369663
19410.200585	16899.251500	1877.148438	275.446381
19410.200585	16899.251500	1876.162109	-40.761532
19410.200585	16899.251500	1875.174805	265.349121
19410.200585	16899.251500	1874.187500	159.811203
19410.200585	16899.251500	1873.199219	68.809166
19410.200585	16899.251500	1872.211914	122.991562
19410.200585	16899.251500	1871.223633	-255.920425
19410.200585	16899.251500	1870.236328	-801.629761
19410.200585	16899.251500	1869.248047	362.639435
19410.200585	16899.251500	1868.258789	136.132355
19410.200585	16899.251500	1867.270508	-235.373184
19410.200585	16899.251500	1866.282227	-75.024879
19410.200585	16899.251500	1865.292969	41.732624
19410.200585	16899.251500	1864.303711	-109.774590
19410.200585	16899.251500	1863.314453	146.984055
19410.200585	16899.251500	1862.324219	12.356767
19410.200585	16899.251500	1861.334961	143.359970
19410.200585	16899.251500	1860.344727	312.909424
19410.200585	16899.251500	1859.354492	120.276749
19410.200585	16899.251500	1858.364258	55.594067
19410.200585	16899.251500	1857.374023	292.509186
19410.200585	16899.251500	1856.383789	283.224548
19410.200585	16899.251500	1855.392578	348.681885
19410.200585	16899.251500	1854.401367	228.379562
19410.200585	16899.251500	1853.410156	79.148918
19410.200585	16899.251500	1852.418945	195.102631
19410.200585	16899.251500	1851.426758	-127.684944
19410.200585	16899.251500	1850.435547	383.381653
19410.200585	16899.251500	1849.443359	248.522018
19410.200585	16899.251500	1848.451172	284.691833
19410.200585	16899.251500	1847.458984	246.144379
19410.200585	16899.251500	1846.466797	41.418102
19410.200585	16899.251500	1845.473633	486.747314
19410.200585	16899.251500	1844.480469	337.322205
19410.200585	16899.251500	1843.487305	159.025024
19410.200585	16899.251500	1842.494141	620.780945
19410.200585	16899.251500	1841.500977	-36.332451
19410.200585	16899.251500	1840.506836	470.891541
19410.200585	16899.251500	1839.513672	239.600250
19410.200585	16899.251500	1838.519531	344.953735
19410.200585	16899.251500	1837.525391	346.849609
19410.200585	16899.251500	1836.530273	89.127289
19410.200585	16899.251500	1835.536133	364.903198
19410.200585	16899.251500	1834.541016	342.614441
19410.200585	16899.251500	1833.545898	543.670593
19410.200585	16899.251500	1832.550781	120.176567
19410.200585	16899.251500	1831.555664	383.522522
19410.200585	16899.251500	1830.560547	339.418915
19410.200585	16899.251500	1829.564453	110.458702
19410.200585	16899.251500	1828.568359	-171.268555
19410.200585	16899.251500	1827.572266	406.025757
19410.200585	16899.251500	1826.576172	426.497437
19410.200585	16899.251500	1825.580078	605.200684
19410.200585	16899.251500	1824.583008	61.982216
19410.200585	16899.251500	1823.585938	211.802948
19410.200585	16899.251500	1822.588867	121.795311
19410.200585	16899.251500	1821.591797	614.150269
19410.200585	16899.251500	1820.594727	128.609680
19410.200585	16899.251500	1819.596680	26.512068
19410.200585	16899.251500	1818.599609	127.987671
19410.200585	16899.251500	1817.601563	670.014771
19410.200585	16899.251500	1816.603516	419.234589
19410.200585	16899.251500	1815.604492	-44.569286
19410.200585	16899.251500	1814.606445	350.995667
19410.200585	16899.251500	1813.607422	183.985428
19410.200585	16899.251500	1812.608398	483.529694
19410.200585	16899.251500	1811.609375	96.358612
19410.200585	16899.251500	1810.610352	441.116455
19410.200585	16899.251500	1809.610352	6.149115
19410.200585	16899.251500	1808.611328	68.552963
19410.200585	16899.251500	1807.611328	532.445801
19410.200585	16899.251500	1806.611328	173.985153
19410.200585	16899.251500	1805.610352	415.337006
19410.200585	16899.251500	1804.610352	1.953717
19410.200585	16899.251500	1803.609375	326.710480
19410.200585	16899.251500	1802.608398	254.862762
19410.200585	16899.251500	1801.607422	261.765808
19410.200585	16899.251500	1800.606445	478.665558
19410.200585	16899.251500	1799.605469	113.061821
19410.200585	16899.251500	1798.603516	487.272583
19410.200585	16899.251500	1797.601563	849.338806
19410.200585	16899.251500	1796.599609	543.303406
19410.200585	16899.251500	1795.597656	456.728668
19410.200585	16899.251500	1794.595703	439.262970
19410.200585	16899.251500	1793.592773	428.891968
19410.200585	16899.251500	1792.589844	468.512512
19410.200585	16899.251500	1791.587891	150.580292
19410.200585	16899.251500	1790.583984	206.774826
19410.200585	16899.251500	1789.581055	305.760223
19410.200585	16899.251500	1788.577148	292.698975
19410.200585	16899.251500	1787.574219	293.858368
19410.200585	16899.251500	1786.570313	-45.509525
19410.200585	16899.251500	1785.566406	310.254364
19410.200585	16899.251500	1784.561523	408.783691
19410.200585	16899.251500	1783.557617	93.170555
19410.200585	16899.251500	1782.552734	-124.845192
19410.200585	16899.251500	1781.547852	-50.287731
19410.200585	16899.251500	1780.542969	-56.680447
19410.200585	16899.251500	1779.538086	77.140808
19410.200585	16899.251500	1778.532227	146.656998
19410.200585	16899.251500	1777.527344	185.179840
19410.200585	16899.251500	1776.521484	499.272705
19410.200585	16899.251500	1775.515625	406.900116
19410.200585	16899.251500	1774.508789	385.761627
19410.200585	16899.251500	1773.502930	-43.935974
19410.200585	16899.251500	1772.496094	359.917084
19410.200585	16899.251500	1771.489258	-15.147910
19410.200585	16899.251500	1770.482422	134.431702
19410.200585	16899.251500	1769.475586	84.542862
19410.200585	16899.251500	1768.467773	195.947250
19410.200585	16899.251500	1767.460938	380.778290
19410.200585	16899.251500	1766.453125	375.727112
19410.200585	16899.251500	1765.445313	387.212158
19410.200585	16899.251500	1764.437500	377.284424
19410.200585	16899.251500	1763.428711	291.439789
19410.200585	16899.251500	1762.420898	155.788910
19410.200585	16899.251500	1761.412109	193.104340
19410.200585	16899.251500	1760.403320	2.898673
19410.200585	16899.251500	1759.393555	456.976105
19410.200585	16899.251500	1758.384766	271.401001
19410.200585	16899.251500	1757.375000	-4.148284
19410.200585	16899.251500	1756.366211	54.135075
19410.200585	16899.251500	1755.356445	121.796410
19410.200585	16899.251500	1754.345703	-35.445332
19410.200585	16899.251500	1753.335938	150.377213
19410.200585	16899.251500	1752.325195	-4.569860
19410.200585	16899.251500	1751.315430	306.392029
19410.200585	16899.251500	1750.304688	260.120148
19410.200585	16899.251500	1749.292969	320.185089
19410.200585	16899.251500	1748.282227	269.070496
19410.200585	16899.251500	1747.270508	-124.757301
19410.200585	16899.251500	1746.259766	-83.740189
19410.200585	16899.251500	1745.248047	-47.525295
19410.200585	16899.251500	1744.235352	-138.932617
19410.200585	16899.251500	1743.223633	218.315063
19410.200585	16899.251500	1742.211914	-33.775562
19410.200585	16899.251500	1741.199219	-89.905022
19410.200585	16899.251500	1740.186523	21.495327
19410.200585	16899.251500	1739.173828	-240.027100
19410.200585	16899.251500	1738.160156	-95.731560
19410.200585	16899.251500	1737.147461	43.737999
19410.200585	16899.251500	1736.133789	13.296061
19410.200585	16899.251500	1735.120117	249.245987
19410.200585	16899.251500	1734.106445	138.514130
19410.200585	16899.251500	1733.091797	150.325409
19410.200585	16899.251500	1732.078125	-21.725288
19410.200585	16899.251500	1731.063477	13.561235
19410.200585	16899.251500	1730.048828	442.168335
19410.200585	16899.251500	1729.034180	-184.547928
19410.200585	16899.251500	1728.019531	-208.274368
19410.200585	16899.251500	1727.003906	69.295700
19410.200585	16899.251500	1725.988281	28.946634
19410.200585	16899.251500	1724.972656	160.358795
19410.200585	16899.251500	1723.957031	-322.439789
19410.200585	16899.251500	1722.941406	-252.276566
19410.200585	16899.251500	1721.924805	-351.536407
19410.200585	16899.251500	1720.909180	-384.959229
19410.200585	16899.251500	1719.892578	-35.190483
19410.200585	16899.251500	1718.875977	100.488129
19410.200585	16899.251500	1717.858398	-405.534973
19410.200585	16899.251500	1716.841797	0.289781
19410.200585	16899.251500	1715.824219	380.074371
19410.200585	16899.251500	1714.806641	22.127230
19410.200585	16899.251500	1713.789063	108.120949
19410.200585	16899.251500	1712.770508	-73.626488
19410.200585	16899.251500	1711.752930	-112.147171
19410.200585	16899.251500	1710.734375	243.608109
19410.200585	16899.251500	1709.715820	174.447952
19410.200585	16899.251500	1708.697266	-14.372946
19410.200585	16899.251500	1707.678711	-268.845947
19410.200585	16899.251500	1706.659180	-26.063419
19410.200585	16899.251500	1705.640625	-163.271820
19410.200585	16899.251500	1704.621094	51.190975
19410.200585	16899.251500	1703.600586	70.985847
19410.200585	16899.251500	1702.581055	226.663437
19410.200585	16899.251500	1701.561523	-32.466312
19410.200585	16899.251500	1700.541016	-174.402130
19410.200585	16899.251500	1699.520508	316.047791
19410.200585	16899.251500	1698.500000	14.802280
19410.200585	16899.251500	1697.478516	123.350830
19410.200585	16899.251500	1696.458008	-44.380562
19410.200585	16899.251500	1695.436523	199.812729
19410.200585	16899.251500	1694.415039	-77.900764
19410.200585	16899.251500	1693.393555	205.921280
19410.200585	16899.251500	1692.372070	155.139130
19410.200585	16899.251500	1691.349609	-108.457047
19410.200585	16899.251500	1690.327148	128.367813
19410.200585	16899.251500	1689.304688	276.247437
19410.200585	16899.251500	1688.282227	57.112446
19410.200585	16899.251500	1687.259766	-239.067490
19410.200585	16899.251500	1686.236328	-28.189760
19410.200585	16899.251500	1685.213867	138.207291
19410.200585	16899.251500	1684.190430	-120.515839
19410.200585	16899.251500	1683.166016	-45.268383
19410.200585	16899.251500	1682.142578	-54.104214
19410.200585	16899.251500	1681.119141	95.758949
19410.200585	16899.251500	1680.094727	70.529121
19410.200585	16899.251500	1679.070313	182.949417
19410.200585	16899.251500	1678.045898	174.012985
19410.200585	16899.251500	1677.020508	293.334106
19410.200585	16899.251500	1675.996094	251.714478
19410.200585	16899.251500	1674.970703	331.323090
19410.200585	16899.251500	1673.945313	-17.987514
19410.200585	16899.251500	1672.919922	383.221130
19410.200585	16899.251500	1671.893555	-70.831230
19410.200585	16899.251500	1670.868164	467.661102
19410.200585	16899.251500	1669.841797	286.253784
19410.200585	16899.251500	1668.815430	447.221252
19410.200585	16899.251500	1667.789063	556.900452
19410.200585	16899.251500	1666.761719	180.042404
19410.200585	16899.251500	1665.735352	259.472321
19410.200585	16899.251500	1664.708008	113.167786
19410.200585	16899.251500	1663.680664	397.297760
19410.200585	16899.251500	1662.653320	378.953125
19410.200585	16899.251500	1661.625000	390.841949
19410.200585	16899.251500	1660.597656	446.910492
19410.200585	16899.251500	1659.569336	614.538757
19410.200585	16899.251500	1658.541016	175.512878
19410.200585	16899.251500	1657.512695	570.861267
19410.200585	16899.251500	1656.483398	422.424774
19410.200585	16899.251500	1655.455078	650.348938
19410.200585	16899.251500	1654.425781	525.197327
19410.200585	16899.251500	1653.396484	397.779572
19410.200585	16899.251500	1652.366211	511.854584
19410.200585	16899.251500	1651.336914	639.821655
19410.200585	16899.251500	1650.306641	301.326508
19410.200585	16899.251500	1649.276367	420.034210
19410.200585	16899.251500	1648.246094	459.840271
19410.200585	16899.251500	1647.215820	474.140259
19410.200585	16899.251500	1646.185547	569.611023
19410.200585	16899.251500	1645.154297	820.378784
19410.200585	16899.251500	1644.123047	535.655273
19410.200585	16899.251500	1643.091797	902.246338
19410.200585	16899.251500	1642.060547	860.937988
19410.200585	16899.251500	1641.028320	951.704407
19410.200585	16899.251500	1639.997070	970.666992
19410.200585	16899.251500	1638.964844	1047.530518
19410.200585	16899.251500	1637.931641	492.358795
19410.200585	16899.251500	1636.899414	715.167480
19410.200585	16899.251500	1635.867188	516.727539
19410.200585	16899.251500	1634.833984	649.259277
19410.200585	16899.251500	1633.800781	497.232086
19410.200585	16899.251500	1632.767578	382.303131
19410.200585	16899.251500	1631.734375	785.438293
19410.200585	16899.251500	1630.700195	587.326843
19410.200585	16899.251500	1629.666016	574.250305
19410.200585	16899.251500	1628.631836	290.819153
19410.200585	16899.251500	1627.597656	975.694519
19410.200585	16899.251500	1626.563477	1075.865723
19410.200585	16899.251500	1625.528320	1252.252563
19410.200585	16899.251500	1624.493164	878.995911
19410.200585	16899.251500	1623.458008	577.499084
19410.200585	16899.251500	1622.422852	1051.786499
19410.200585	16899.251500	1621.387695	1152.042847
19410.200585	16899.251500	1620.351563	848.488831
19410.200585	16899.251500	1619.315430	891.159668
19410.200585	16899.251500	1618.279297	1146.064087
19410.200585	16899.251500	1617.243164	1045.769531
19410.200585	16899.251500	1616.207031	1074.683228
19410.200585	16899.251500	1615.169922	1128.987183
19410.200585	16899.251500	1614.132813	1176.407715
19410.200585	16899.251500	1613.095703	1027.988647
19410.200585	16899.251500	1612.058594	1105.461426
19410.200585	16899.251500	1611.020508	683.106079
19410.200585	16899.251500	1609.983398	1007.146912
19410.200585	16899.251500	1608.945313	981.127075
19410.200585	16899.251500	1607.907227	962.077332
19410.200585	16899.251500	1606.868164	1141.035522
19410.200585	16899.251500	1605.830078	1269.358398
19410.200585	16899.251500	1604.791016	1317.159912
19410.200585	16899.251500	1603.751953	886.533081
19410.200585	16899.251500	1602.712891	840.216980
19410.200585	16899.251500	1601.673828	1090.607056
19410.200585	16899.251500	1600.633789	1426.022827
19410.200585	16899.251500	1599.594727	1708.503906
19410.200585	16899.251500	1598.554688	1198.102417
19410.200585	16899.251500	1597.513672	1055.585205
19410.200585	16899.251500	1596.473633	1616.131958
19410.200585	16899.251500	1595.433594	1103.949219
19410.200585	16899.251500	1594.392578	1237.293945
19410.200585	16899.251500	1593.351563	1299.485229
