#X		#Y		#Wave		#Intensity
19396.945000	16897.048000	2000.043945	-56.630981
19396.945000	16897.048000	1999.080078	-334.920685
19396.945000	16897.048000	1998.116211	29.350903
19396.945000	16897.048000	1997.151367	-33.154568
19396.945000	16897.048000	1996.186523	141.811752
19396.945000	16897.048000	1995.222656	-223.741974
19396.945000	16897.048000	1994.256836	-9.948481
19396.945000	16897.048000	1993.291992	-54.167080
19396.945000	16897.048000	1992.327148	39.902790
19396.945000	16897.048000	1991.361328	108.841240
19396.945000	16897.048000	1990.395508	-52.769402
19396.945000	16897.048000	1989.429688	161.458878
19396.945000	16897.048000	1988.463867	367.847473
19396.945000	16897.048000	1987.497070	-89.064537
19396.945000	16897.048000	1986.531250	44.928349
19396.945000	16897.048000	1985.564453	-100.835632
19396.945000	16897.048000	1984.597656	-194.929245
19396.945000	16897.048000	1983.630859	7.327556
19396.945000	16897.048000	1982.664063	102.954468
19396.945000	16897.048000	1981.696289	42.616711
19396.945000	16897.048000	1980.728516	345.175781
19396.945000	16897.048000	1979.761719	328.728485
19396.945000	16897.048000	1978.792969	186.112137
19396.945000	16897.048000	1977.825195	287.715057
19396.945000	16897.048000	1976.857422	55.787159
19396.945000	16897.048000	1975.888672	124.827202
19396.945000	16897.048000	1974.919922	80.099792
19396.945000	16897.048000	1973.951172	264.607758
19396.945000	16897.048000	1972.982422	421.701416
19396.945000	16897.048000	1972.013672	92.676323
19396.945000	16897.048000	1971.043945	343.037292
19396.945000	16897.048000	1970.075195	314.515930
19396.945000	16897.048000	1969.105469	-128.271545
19396.945000	16897.048000	1968.135742	-137.345047
19396.945000	16897.048000	1967.165039	375.763824
19396.945000	16897.048000	1966.195313	36.139320
19396.945000	16897.048000	1965.224609	149.672974
19396.945000	16897.048000	1964.253906	31.517057
19396.945000	16897.048000	1963.283203	105.294083
19396.945000	16897.048000	1962.312500	375.817902
19396.945000	16897.048000	1961.341797	200.620926
19396.945000	16897.048000	1960.370117	62.259518
19396.945000	16897.048000	1959.399414	177.213882
19396.945000	16897.048000	1958.427734	43.556164
19396.945000	16897.048000	1957.455078	350.052338
19396.945000	16897.048000	1956.483398	-56.781712
19396.945000	16897.048000	1955.511719	55.148590
19396.945000	16897.048000	1954.539063	523.331726
19396.945000	16897.048000	1953.566406	-31.099123
19396.945000	16897.048000	1952.593750	640.641418
19396.945000	16897.048000	1951.621094	290.076935
19396.945000	16897.048000	1950.647461	310.433411
19396.945000	16897.048000	1949.674805	33.532276
19396.945000	16897.048000	1948.701172	218.235275
19396.945000	16897.048000	1947.727539	140.120956
19396.945000	16897.048000	1946.753906	324.560059
19396.945000	16897.048000	1945.780273	341.981842
19396.945000	16897.048000	1944.805664	72.275269
19396.945000	16897.048000	1943.831055	65.061806
19396.945000	16897.048000	1942.856445	222.094681
19396.945000	16897.048000	1941.881836	-94.244080
19396.945000	16897.048000	1940.907227	62.622791
19396.945000	16897.048000	1939.932617	452.221680
19396.945000	16897.048000	1938.957031	20.647598
19396.945000	16897.048000	1937.981445	-303.017059
19396.945000	16897.048000	1937.005859	218.554657
19396.945000	16897.048000	1936.030273	-303.533112
19396.945000	16897.048000	1935.054688	-2.656676
19396.945000	16897.048000	1934.078125	-96.127937
19396.945000	16897.048000	1933.101563	60.076790
19396.945000	16897.048000	1932.125000	-219.469849
19396.945000	16897.048000	1931.148438	66.308601
19396.945000	16897.048000	1930.171875	-12.597394
19396.945000	16897.048000	1929.194336	-169.785431
19396.945000	16897.048000	1928.217773	35.008389
19396.945000	16897.048000	1927.240234	29.406902
19396.945000	16897.048000	1926.262695	-181.585938
19396.945000	16897.048000	1925.284180	164.779526
19396.945000	16897.048000	1924.306641	-68.209373
19396.945000	16897.048000	1923.328125	251.069702
19396.945000	16897.048000	1922.350586	88.947029
19396.945000	16897.048000	1921.372070	-146.408432
19396.945000	16897.048000	1920.392578	306.954010
19396.945000	16897.048000	1919.414063	-79.772133
19396.945000	16897.048000	1918.434570	63.351330
19396.945000	16897.048000	1917.456055	-271.970367
19396.945000	16897.048000	1916.476563	-4.447722
19396.945000	16897.048000	1915.497070	-173.752899
19396.945000	16897.048000	1914.516602	61.913616
19396.945000	16897.048000	1913.537109	243.823380
19396.945000	16897.048000	1912.556641	-152.238312
19396.945000	16897.048000	1911.576172	-123.963371
19396.945000	16897.048000	1910.595703	-134.706284
19396.945000	16897.048000	1909.615234	-6.548185
19396.945000	16897.048000	1908.633789	-185.443802
19396.945000	16897.048000	1907.653320	5.999307
19396.945000	16897.048000	1906.671875	236.343384
19396.945000	16897.048000	1905.690430	335.091614
19396.945000	16897.048000	1904.708984	161.111832
19396.945000	16897.048000	1903.727539	189.232819
19396.945000	16897.048000	1902.745117	195.440918
19396.945000	16897.048000	1901.762695	182.180588
19396.945000	16897.048000	1900.780273	-101.133636
19396.945000	16897.048000	1899.797852	194.580750
19396.945000	16897.048000	1898.815430	91.331955
19396.945000	16897.048000	1897.832031	63.504589
19396.945000	16897.048000	1896.849609	-375.173340
19396.945000	16897.048000	1895.866211	75.930130
19396.945000	16897.048000	1894.882813	247.395935
19396.945000	16897.048000	1893.898438	81.065536
19396.945000	16897.048000	1892.915039	245.174606
19396.945000	16897.048000	1891.930664	-180.977051
19396.945000	16897.048000	1890.947266	165.248566
19396.945000	16897.048000	1889.962891	-5.798049
19396.945000	16897.048000	1888.977539	-101.523071
19396.945000	16897.048000	1887.993164	693.496521
19396.945000	16897.048000	1887.007813	-256.470886
19396.945000	16897.048000	1886.023438	358.747711
19396.945000	16897.048000	1885.038086	139.315140
19396.945000	16897.048000	1884.051758	48.508682
19396.945000	16897.048000	1883.066406	-391.432373
19396.945000	16897.048000	1882.081055	-23.920883
19396.945000	16897.048000	1881.094727	93.802216
19396.945000	16897.048000	1880.108398	167.856430
19396.945000	16897.048000	1879.122070	69.858696
19396.945000	16897.048000	1878.135742	-209.792770
19396.945000	16897.048000	1877.148438	16.867960
19396.945000	16897.048000	1876.162109	299.130798
19396.945000	16897.048000	1875.174805	-115.986145
19396.945000	16897.048000	1874.187500	100.839584
19396.945000	16897.048000	1873.199219	-362.488647
19396.945000	16897.048000	1872.211914	-126.345062
19396.945000	16897.048000	1871.223633	-62.059345
19396.945000	16897.048000	1870.236328	-254.201050
19396.945000	16897.048000	1869.248047	-257.639008
19396.945000	16897.048000	1868.258789	125.794319
19396.945000	16897.048000	1867.270508	-320.123016
19396.945000	16897.048000	1866.282227	-151.952667
19396.945000	16897.048000	1865.292969	-153.010178
19396.945000	16897.048000	1864.303711	-185.481033
19396.945000	16897.048000	1863.314453	-111.658707
19396.945000	16897.048000	1862.324219	109.461433
19396.945000	16897.048000	1861.334961	62.446533
19396.945000	16897.048000	1860.344727	-6.283417
19396.945000	16897.048000	1859.354492	-130.515472
19396.945000	16897.048000	1858.364258	51.788841
19396.945000	16897.048000	1857.374023	185.753906
19396.945000	16897.048000	1856.383789	54.285332
19396.945000	16897.048000	1855.392578	82.051712
19396.945000	16897.048000	1854.401367	83.265976
19396.945000	16897.048000	1853.410156	-209.689728
19396.945000	16897.048000	1852.418945	129.047256
19396.945000	16897.048000	1851.426758	-293.983551
19396.945000	16897.048000	1850.435547	198.835938
19396.945000	16897.048000	1849.443359	-7.242661
19396.945000	16897.048000	1848.451172	116.755371
19396.945000	16897.048000	1847.458984	149.165253
19396.945000	16897.048000	1846.466797	-30.353544
19396.945000	16897.048000	1845.473633	-238.706924
19396.945000	16897.048000	1844.480469	219.747818
19396.945000	16897.048000	1843.487305	449.381042
19396.945000	16897.048000	1842.494141	89.402985
19396.945000	16897.048000	1841.500977	198.648834
19396.945000	16897.048000	1840.506836	67.310242
19396.945000	16897.048000	1839.513672	65.853256
19396.945000	16897.048000	1838.519531	1.861081
19396.945000	16897.048000	1837.525391	428.261688
19396.945000	16897.048000	1836.530273	256.023987
19396.945000	16897.048000	1835.536133	220.793854
19396.945000	16897.048000	1834.541016	288.857452
19396.945000	16897.048000	1833.545898	-27.462641
19396.945000	16897.048000	1832.550781	-55.495285
19396.945000	16897.048000	1831.555664	139.758774
19396.945000	16897.048000	1830.560547	46.822216
19396.945000	16897.048000	1829.564453	129.112946
19396.945000	16897.048000	1828.568359	220.938065
19396.945000	16897.048000	1827.572266	79.960907
19396.945000	16897.048000	1826.576172	186.090881
19396.945000	16897.048000	1825.580078	376.088989
19396.945000	16897.048000	1824.583008	-153.412231
19396.945000	16897.048000	1823.585938	-64.187508
19396.945000	16897.048000	1822.588867	32.164780
19396.945000	16897.048000	1821.591797	176.370468
19396.945000	16897.048000	1820.594727	-50.922741
19396.945000	16897.048000	1819.596680	-21.824619
19396.945000	16897.048000	1818.599609	265.913452
19396.945000	16897.048000	1817.601563	433.764008
19396.945000	16897.048000	1816.603516	139.390076
19396.945000	16897.048000	1815.604492	340.638763
19396.945000	16897.048000	1814.606445	252.149689
19396.945000	16897.048000	1813.607422	125.367714
19396.945000	16897.048000	1812.608398	201.956055
19396.945000	16897.048000	1811.609375	15.339824
19396.945000	16897.048000	1810.610352	225.764435
19396.945000	16897.048000	1809.610352	-13.481798
19396.945000	16897.048000	1808.611328	70.065460
19396.945000	16897.048000	1807.611328	-73.543922
19396.945000	16897.048000	1806.611328	172.400467
19396.945000	16897.048000	1805.610352	90.858635
19396.945000	16897.048000	1804.610352	327.025818
19396.945000	16897.048000	1803.609375	419.744476
19396.945000	16897.048000	1802.608398	142.229156
19396.945000	16897.048000	1801.607422	55.776127
19396.945000	16897.048000	1800.606445	62.400425
19396.945000	16897.048000	1799.605469	281.390533
19396.945000	16897.048000	1798.603516	175.713959
19396.945000	16897.048000	1797.601563	-206.730865
19396.945000	16897.048000	1796.599609	9.637525
19396.945000	16897.048000	1795.597656	380.888885
19396.945000	16897.048000	1794.595703	253.593033
19396.945000	16897.048000	1793.592773	405.217224
19396.945000	16897.048000	1792.589844	70.488342
19396.945000	16897.048000	1791.587891	7.492829
19396.945000	16897.048000	1790.583984	187.504471
19396.945000	16897.048000	1789.581055	300.682068
19396.945000	16897.048000	1788.577148	197.019073
19396.945000	16897.048000	1787.574219	152.868881
19396.945000	16897.048000	1786.570313	-177.021393
19396.945000	16897.048000	1785.566406	-311.658813
19396.945000	16897.048000	1784.561523	132.021179
19396.945000	16897.048000	1783.557617	-152.654831
19396.945000	16897.048000	1782.552734	-44.740952
19396.945000	16897.048000	1781.547852	220.056824
19396.945000	16897.048000	1780.542969	-140.757965
19396.945000	16897.048000	1779.538086	64.388496
19396.945000	16897.048000	1778.532227	102.990189
19396.945000	16897.048000	1777.527344	219.944778
19396.945000	16897.048000	1776.521484	179.955353
19396.945000	16897.048000	1775.515625	-28.773512
19396.945000	16897.048000	1774.508789	-21.322279
19396.945000	16897.048000	1773.502930	-453.312256
19396.945000	16897.048000	1772.496094	-348.556427
19396.945000	16897.048000	1771.489258	71.841492
19396.945000	16897.048000	1770.482422	337.728882
19396.945000	16897.048000	1769.475586	176.277405
19396.945000	16897.048000	1768.467773	218.875000
19396.945000	16897.048000	1767.460938	187.846542
19396.945000	16897.048000	1766.453125	441.382263
19396.945000	16897.048000	1765.445313	336.675751
19396.945000	16897.048000	1764.437500	236.683899
19396.945000	16897.048000	1763.428711	-43.490761
19396.945000	16897.048000	1762.420898	280.723450
19396.945000	16897.048000	1761.412109	282.484894
19396.945000	16897.048000	1760.403320	182.307922
19396.945000	16897.048000	1759.393555	491.876923
19396.945000	16897.048000	1758.384766	289.721161
19396.945000	16897.048000	1757.375000	464.053223
19396.945000	16897.048000	1756.366211	472.535492
19396.945000	16897.048000	1755.356445	206.388153
19396.945000	16897.048000	1754.345703	70.423470
19396.945000	16897.048000	1753.335938	211.261246
19396.945000	16897.048000	1752.325195	-125.859131
19396.945000	16897.048000	1751.315430	69.217598
19396.945000	16897.048000	1750.304688	-208.773331
19396.945000	16897.048000	1749.292969	234.343689
19396.945000	16897.048000	1748.282227	-93.349846
19396.945000	16897.048000	1747.270508	37.482479
19396.945000	16897.048000	1746.259766	309.965424
19396.945000	16897.048000	1745.248047	-107.533554
19396.945000	16897.048000	1744.235352	74.977615
19396.945000	16897.048000	1743.223633	-148.817291
19396.945000	16897.048000	1742.211914	-108.168144
19396.945000	16897.048000	1741.199219	-77.043839
19396.945000	16897.048000	1740.186523	72.005127
19396.945000	16897.048000	1739.173828	289.353912
19396.945000	16897.048000	1738.160156	-31.345430
19396.945000	16897.048000	1737.147461	-9.974657
19396.945000	16897.048000	1736.133789	-49.995495
19396.945000	16897.048000	1735.120117	-297.563507
19396.945000	16897.048000	1734.106445	-302.291779
19396.945000	16897.048000	1733.091797	-328.301910
19396.945000	16897.048000	1732.078125	1.462518
19396.945000	16897.048000	1731.063477	107.207199
19396.945000	16897.048000	1730.048828	22.038656
19396.945000	16897.048000	1729.034180	-32.546719
19396.945000	16897.048000	1728.019531	185.967010
19396.945000	16897.048000	1727.003906	-309.010834
19396.945000	16897.048000	1725.988281	215.329697
19396.945000	16897.048000	1724.972656	111.055367
19396.945000	16897.048000	1723.957031	-367.352997
19396.945000	16897.048000	1722.941406	81.222191
19396.945000	16897.048000	1721.924805	-112.540482
19396.945000	16897.048000	1720.909180	60.549759
19396.945000	16897.048000	1719.892578	141.814560
19396.945000	16897.048000	1718.875977	-381.134827
19396.945000	16897.048000	1717.858398	-342.248871
19396.945000	16897.048000	1716.841797	-195.355774
19396.945000	16897.048000	1715.824219	-210.681244
19396.945000	16897.048000	1714.806641	123.909729
19396.945000	16897.048000	1713.789063	-128.785477
19396.945000	16897.048000	1712.770508	-195.963669
19396.945000	16897.048000	1711.752930	-127.018845
19396.945000	16897.048000	1710.734375	155.416580
19396.945000	16897.048000	1709.715820	-73.873627
19396.945000	16897.048000	1708.697266	58.169701
19396.945000	16897.048000	1707.678711	-264.960693
19396.945000	16897.048000	1706.659180	5.315458
19396.945000	16897.048000	1705.640625	-148.977112
19396.945000	16897.048000	1704.621094	-336.088623
19396.945000	16897.048000	1703.600586	-84.877960
19396.945000	16897.048000	1702.581055	27.914286
19396.945000	16897.048000	1701.561523	-112.436333
19396.945000	16897.048000	1700.541016	-23.220860
19396.945000	16897.048000	1699.520508	-44.170486
19396.945000	16897.048000	1698.500000	112.793579
19396.945000	16897.048000	1697.478516	-116.654976
19396.945000	16897.048000	1696.458008	-27.720903
19396.945000	16897.048000	1695.436523	210.899506
19396.945000	16897.048000	1694.415039	404.920654
19396.945000	16897.048000	1693.393555	222.171402
19396.945000	16897.048000	1692.372070	268.656403
19396.945000	16897.048000	1691.349609	481.107697
19396.945000	16897.048000	1690.327148	181.396179
19396.945000	16897.048000	1689.304688	201.999222
19396.945000	16897.048000	1688.282227	535.730042
19396.945000	16897.048000	1687.259766	-44.371464
19396.945000	16897.048000	1686.236328	-65.928886
19396.945000	16897.048000	1685.213867	314.236938
19396.945000	16897.048000	1684.190430	283.182770
19396.945000	16897.048000	1683.166016	203.061630
19396.945000	16897.048000	1682.142578	354.045166
19396.945000	16897.048000	1681.119141	124.482407
19396.945000	16897.048000	1680.094727	389.679321
19396.945000	16897.048000	1679.070313	533.413635
19396.945000	16897.048000	1678.045898	450.783875
19396.945000	16897.048000	1677.020508	281.849823
19396.945000	16897.048000	1675.996094	390.428070
19396.945000	16897.048000	1674.970703	286.770142
19396.945000	16897.048000	1673.945313	201.767258
19396.945000	16897.048000	1672.919922	617.799194
19396.945000	16897.048000	1671.893555	385.902252
19396.945000	16897.048000	1670.868164	435.936310
19396.945000	16897.048000	1669.841797	544.140930
19396.945000	16897.048000	1668.815430	622.001221
19396.945000	16897.048000	1667.789063	329.619781
19396.945000	16897.048000	1666.761719	135.083450
19396.945000	16897.048000	1665.735352	212.889221
19396.945000	16897.048000	1664.708008	646.631836
19396.945000	16897.048000	1663.680664	766.120911
19396.945000	16897.048000	1662.653320	725.052673
19396.945000	16897.048000	1661.625000	218.873413
19396.945000	16897.048000	1660.597656	935.834167
19396.945000	16897.048000	1659.569336	490.201508
19396.945000	16897.048000	1658.541016	360.800659
19396.945000	16897.048000	1657.512695	972.679565
19396.945000	16897.048000	1656.483398	840.870300
19396.945000	16897.048000	1655.455078	493.073395
19396.945000	16897.048000	1654.425781	514.641174
19396.945000	16897.048000	1653.396484	654.598328
19396.945000	16897.048000	1652.366211	882.695557
19396.945000	16897.048000	1651.336914	739.336731
19396.945000	16897.048000	1650.306641	591.377991
19396.945000	16897.048000	1649.276367	765.949463
19396.945000	16897.048000	1648.246094	687.603027
19396.945000	16897.048000	1647.215820	818.003784
19396.945000	16897.048000	1646.185547	841.684143
19396.945000	16897.048000	1645.154297	436.457306
19396.945000	16897.048000	1644.123047	729.047363
19396.945000	16897.048000	1643.091797	938.092041
19396.945000	16897.048000	1642.060547	1012.670654
19396.945000	16897.048000	1641.028320	934.323059
19396.945000	16897.048000	1639.997070	800.418030
19396.945000	16897.048000	1638.964844	1372.819458
19396.945000	16897.048000	1637.931641	1046.716064
19396.945000	16897.048000	1636.899414	1179.050659
19396.945000	16897.048000	1635.867188	1295.136841
19396.945000	16897.048000	1634.833984	1001.635498
19396.945000	16897.048000	1633.800781	1312.032349
19396.945000	16897.048000	1632.767578	1194.430298
19396.945000	16897.048000	1631.734375	1171.689575
19396.945000	16897.048000	1630.700195	1280.740967
19396.945000	16897.048000	1629.666016	1260.316284
19396.945000	16897.048000	1628.631836	1147.459595
19396.945000	16897.048000	1627.597656	1378.949463
19396.945000	16897.048000	1626.563477	1480.986084
19396.945000	16897.048000	1625.528320	1183.402588
19396.945000	16897.048000	1624.493164	1165.376099
19396.945000	16897.048000	1623.458008	1606.837402
19396.945000	16897.048000	1622.422852	1173.252563
19396.945000	16897.048000	1621.387695	1513.020996
19396.945000	16897.048000	1620.351563	1467.315918
19396.945000	16897.048000	1619.315430	1207.091431
19396.945000	16897.048000	1618.279297	1219.173096
19396.945000	16897.048000	1617.243164	1381.167480
19396.945000	16897.048000	1616.207031	1273.357056
19396.945000	16897.048000	1615.169922	1596.692017
19396.945000	16897.048000	1614.132813	1364.466797
19396.945000	16897.048000	1613.095703	1660.057373
19396.945000	16897.048000	1612.058594	1169.925781
19396.945000	16897.048000	1611.020508	1343.405518
19396.945000	16897.048000	1609.983398	1549.098755
19396.945000	16897.048000	1608.945313	1179.093262
19396.945000	16897.048000	1607.907227	1368.682861
19396.945000	16897.048000	1606.868164	1178.450928
19396.945000	16897.048000	1605.830078	1464.683350
19396.945000	16897.048000	1604.791016	1414.924805
19396.945000	16897.048000	1603.751953	1356.023804
19396.945000	16897.048000	1602.712891	1913.547974
19396.945000	16897.048000	1601.673828	1999.513916
19396.945000	16897.048000	1600.633789	1701.552368
19396.945000	16897.048000	1599.594727	1711.753174
19396.945000	16897.048000	1598.554688	1717.395996
19396.945000	16897.048000	1597.513672	1435.872803
19396.945000	16897.048000	1596.473633	1834.476196
19396.945000	16897.048000	1595.433594	1716.204224
19396.945000	16897.048000	1594.392578	1781.726685
