#X		#Y		#Wave		#Intensity
19423.215160	16876.971667	2000.043945	108.711533
19423.215160	16876.971667	1999.080078	4.229337
19423.215160	16876.971667	1998.116211	64.204109
19423.215160	16876.971667	1997.151367	-128.564651
19423.215160	16876.971667	1996.186523	43.006256
19423.215160	16876.971667	1995.222656	73.351509
19423.215160	16876.971667	1994.256836	-34.966576
19423.215160	16876.971667	1993.291992	5.369786
19423.215160	16876.971667	1992.327148	236.370483
19423.215160	16876.971667	1991.361328	39.077873
19423.215160	16876.971667	1990.395508	20.087013
19423.215160	16876.971667	1989.429688	194.143921
19423.215160	16876.971667	1988.463867	-104.374481
19423.215160	16876.971667	1987.497070	-11.928419
19423.215160	16876.971667	1986.531250	35.989697
19423.215160	16876.971667	1985.564453	-39.717258
19423.215160	16876.971667	1984.597656	126.900452
19423.215160	16876.971667	1983.630859	-35.263336
19423.215160	16876.971667	1982.664063	-254.188782
19423.215160	16876.971667	1981.696289	16.207321
19423.215160	16876.971667	1980.728516	207.466629
19423.215160	16876.971667	1979.761719	28.182571
19423.215160	16876.971667	1978.792969	165.070007
19423.215160	16876.971667	1977.825195	-14.114109
19423.215160	16876.971667	1976.857422	-99.418159
19423.215160	16876.971667	1975.888672	212.677933
19423.215160	16876.971667	1974.919922	78.028557
19423.215160	16876.971667	1973.951172	51.990906
19423.215160	16876.971667	1972.982422	-80.101204
19423.215160	16876.971667	1972.013672	110.935699
19423.215160	16876.971667	1971.043945	82.453941
19423.215160	16876.971667	1970.075195	110.683212
19423.215160	16876.971667	1969.105469	25.522680
19423.215160	16876.971667	1968.135742	26.646320
19423.215160	16876.971667	1967.165039	49.947639
19423.215160	16876.971667	1966.195313	171.773651
19423.215160	16876.971667	1965.224609	175.329346
19423.215160	16876.971667	1964.253906	82.840584
19423.215160	16876.971667	1963.283203	19.925747
19423.215160	16876.971667	1962.312500	-30.661995
19423.215160	16876.971667	1961.341797	68.895012
19423.215160	16876.971667	1960.370117	30.610600
19423.215160	16876.971667	1959.399414	-34.732376
19423.215160	16876.971667	1958.427734	126.246017
19423.215160	16876.971667	1957.455078	129.760986
19423.215160	16876.971667	1956.483398	-112.629074
19423.215160	16876.971667	1955.511719	-32.880909
19423.215160	16876.971667	1954.539063	147.607300
19423.215160	16876.971667	1953.566406	-33.239941
19423.215160	16876.971667	1952.593750	292.126740
19423.215160	16876.971667	1951.621094	288.173706
19423.215160	16876.971667	1950.647461	247.371017
19423.215160	16876.971667	1949.674805	218.846695
19423.215160	16876.971667	1948.701172	70.015892
19423.215160	16876.971667	1947.727539	210.893158
19423.215160	16876.971667	1946.753906	108.725273
19423.215160	16876.971667	1945.780273	67.927933
19423.215160	16876.971667	1944.805664	115.458534
19423.215160	16876.971667	1943.831055	185.032959
19423.215160	16876.971667	1942.856445	117.227127
19423.215160	16876.971667	1941.881836	211.267395
19423.215160	16876.971667	1940.907227	-60.030048
19423.215160	16876.971667	1939.932617	70.744766
19423.215160	16876.971667	1938.957031	127.936935
19423.215160	16876.971667	1937.981445	305.154114
19423.215160	16876.971667	1937.005859	-29.712214
19423.215160	16876.971667	1936.030273	-53.406338
19423.215160	16876.971667	1935.054688	148.186859
19423.215160	16876.971667	1934.078125	168.509155
19423.215160	16876.971667	1933.101563	149.641006
19423.215160	16876.971667	1932.125000	-89.510445
19423.215160	16876.971667	1931.148438	67.830147
19423.215160	16876.971667	1930.171875	237.328720
19423.215160	16876.971667	1929.194336	74.078400
19423.215160	16876.971667	1928.217773	11.140860
19423.215160	16876.971667	1927.240234	-44.450958
19423.215160	16876.971667	1926.262695	-144.044128
19423.215160	16876.971667	1925.284180	105.920250
19423.215160	16876.971667	1924.306641	-35.243034
19423.215160	16876.971667	1923.328125	45.980293
19423.215160	16876.971667	1922.350586	102.726410
19423.215160	16876.971667	1921.372070	-13.979726
19423.215160	16876.971667	1920.392578	67.146042
19423.215160	16876.971667	1919.414063	-25.127178
19423.215160	16876.971667	1918.434570	82.790916
19423.215160	16876.971667	1917.456055	-21.687901
19423.215160	16876.971667	1916.476563	137.399658
19423.215160	16876.971667	1915.497070	162.226318
19423.215160	16876.971667	1914.516602	52.867443
19423.215160	16876.971667	1913.537109	2.064062
19423.215160	16876.971667	1912.556641	21.977591
19423.215160	16876.971667	1911.576172	36.991768
19423.215160	16876.971667	1910.595703	142.170151
19423.215160	16876.971667	1909.615234	140.065536
19423.215160	16876.971667	1908.633789	40.484665
19423.215160	16876.971667	1907.653320	52.984207
19423.215160	16876.971667	1906.671875	155.583801
19423.215160	16876.971667	1905.690430	43.832317
19423.215160	16876.971667	1904.708984	-26.502558
19423.215160	16876.971667	1903.727539	29.755032
19423.215160	16876.971667	1902.745117	12.964471
19423.215160	16876.971667	1901.762695	3.463780
19423.215160	16876.971667	1900.780273	142.358521
19423.215160	16876.971667	1899.797852	-22.870771
19423.215160	16876.971667	1898.815430	-5.652701
19423.215160	16876.971667	1897.832031	218.226517
19423.215160	16876.971667	1896.849609	23.856142
19423.215160	16876.971667	1895.866211	-10.031655
19423.215160	16876.971667	1894.882813	55.715706
19423.215160	16876.971667	1893.898438	104.416458
19423.215160	16876.971667	1892.915039	119.073036
19423.215160	16876.971667	1891.930664	-172.320770
19423.215160	16876.971667	1890.947266	-43.514427
19423.215160	16876.971667	1889.962891	-36.164604
19423.215160	16876.971667	1888.977539	5.153535
19423.215160	16876.971667	1887.993164	92.552917
19423.215160	16876.971667	1887.007813	-111.278503
19423.215160	16876.971667	1886.023438	-62.736523
19423.215160	16876.971667	1885.038086	46.415573
19423.215160	16876.971667	1884.051758	-77.303642
19423.215160	16876.971667	1883.066406	14.808736
19423.215160	16876.971667	1882.081055	85.053192
19423.215160	16876.971667	1881.094727	-7.137021
19423.215160	16876.971667	1880.108398	126.066628
19423.215160	16876.971667	1879.122070	181.672974
19423.215160	16876.971667	1878.135742	-0.157783
19423.215160	16876.971667	1877.148438	215.277054
19423.215160	16876.971667	1876.162109	-12.529408
19423.215160	16876.971667	1875.174805	110.796944
19423.215160	16876.971667	1874.187500	120.291740
19423.215160	16876.971667	1873.199219	100.728905
19423.215160	16876.971667	1872.211914	-102.743088
19423.215160	16876.971667	1871.223633	27.710682
19423.215160	16876.971667	1870.236328	119.397919
19423.215160	16876.971667	1869.248047	-142.044769
19423.215160	16876.971667	1868.258789	242.184326
19423.215160	16876.971667	1867.270508	183.855881
19423.215160	16876.971667	1866.282227	123.118713
19423.215160	16876.971667	1865.292969	161.470245
19423.215160	16876.971667	1864.303711	156.302658
19423.215160	16876.971667	1863.314453	-68.702461
19423.215160	16876.971667	1862.324219	114.534294
19423.215160	16876.971667	1861.334961	-35.549290
19423.215160	16876.971667	1860.344727	116.197754
19423.215160	16876.971667	1859.354492	91.662758
19423.215160	16876.971667	1858.364258	88.842743
19423.215160	16876.971667	1857.374023	-12.921521
19423.215160	16876.971667	1856.383789	184.487091
19423.215160	16876.971667	1855.392578	389.043304
19423.215160	16876.971667	1854.401367	161.834747
19423.215160	16876.971667	1853.410156	74.541985
19423.215160	16876.971667	1852.418945	83.694221
19423.215160	16876.971667	1851.426758	153.084503
19423.215160	16876.971667	1850.435547	215.203644
19423.215160	16876.971667	1849.443359	79.720764
19423.215160	16876.971667	1848.451172	4.494997
19423.215160	16876.971667	1847.458984	37.660019
19423.215160	16876.971667	1846.466797	193.603424
19423.215160	16876.971667	1845.473633	67.794868
19423.215160	16876.971667	1844.480469	230.864044
19423.215160	16876.971667	1843.487305	-94.683327
19423.215160	16876.971667	1842.494141	32.230755
19423.215160	16876.971667	1841.500977	-91.111618
19423.215160	16876.971667	1840.506836	16.479828
19423.215160	16876.971667	1839.513672	32.631924
19423.215160	16876.971667	1838.519531	219.469467
19423.215160	16876.971667	1837.525391	223.524551
19423.215160	16876.971667	1836.530273	4.042045
19423.215160	16876.971667	1835.536133	0.893046
19423.215160	16876.971667	1834.541016	52.986374
19423.215160	16876.971667	1833.545898	220.342453
19423.215160	16876.971667	1832.550781	63.397633
19423.215160	16876.971667	1831.555664	-14.266234
19423.215160	16876.971667	1830.560547	167.357498
19423.215160	16876.971667	1829.564453	238.482315
19423.215160	16876.971667	1828.568359	112.778122
19423.215160	16876.971667	1827.572266	126.264236
19423.215160	16876.971667	1826.576172	142.126022
19423.215160	16876.971667	1825.580078	167.555649
19423.215160	16876.971667	1824.583008	180.967651
19423.215160	16876.971667	1823.585938	247.100372
19423.215160	16876.971667	1822.588867	61.492649
19423.215160	16876.971667	1821.591797	180.309311
19423.215160	16876.971667	1820.594727	40.270836
19423.215160	16876.971667	1819.596680	99.112930
19423.215160	16876.971667	1818.599609	-67.246864
19423.215160	16876.971667	1817.601563	223.849579
19423.215160	16876.971667	1816.603516	-16.739166
19423.215160	16876.971667	1815.604492	204.771332
19423.215160	16876.971667	1814.606445	126.991142
19423.215160	16876.971667	1813.607422	-115.901260
19423.215160	16876.971667	1812.608398	-26.156628
19423.215160	16876.971667	1811.609375	34.827335
19423.215160	16876.971667	1810.610352	301.447845
19423.215160	16876.971667	1809.610352	-41.816498
19423.215160	16876.971667	1808.611328	119.477661
19423.215160	16876.971667	1807.611328	5.800488
19423.215160	16876.971667	1806.611328	-12.262705
19423.215160	16876.971667	1805.610352	29.391603
19423.215160	16876.971667	1804.610352	85.339737
19423.215160	16876.971667	1803.609375	224.838776
19423.215160	16876.971667	1802.608398	175.603989
19423.215160	16876.971667	1801.607422	78.609749
19423.215160	16876.971667	1800.606445	117.694618
19423.215160	16876.971667	1799.605469	192.538025
19423.215160	16876.971667	1798.603516	-35.726425
19423.215160	16876.971667	1797.601563	-61.138214
19423.215160	16876.971667	1796.599609	111.416634
19423.215160	16876.971667	1795.597656	64.468109
19423.215160	16876.971667	1794.595703	198.727844
19423.215160	16876.971667	1793.592773	56.365459
19423.215160	16876.971667	1792.589844	14.137478
19423.215160	16876.971667	1791.587891	-11.421137
19423.215160	16876.971667	1790.583984	-58.443748
19423.215160	16876.971667	1789.581055	-93.566116
19423.215160	16876.971667	1788.577148	180.922150
19423.215160	16876.971667	1787.574219	257.628510
19423.215160	16876.971667	1786.570313	134.285690
19423.215160	16876.971667	1785.566406	63.328159
19423.215160	16876.971667	1784.561523	-17.153841
19423.215160	16876.971667	1783.557617	-26.250864
19423.215160	16876.971667	1782.552734	-75.819275
19423.215160	16876.971667	1781.547852	-63.558292
19423.215160	16876.971667	1780.542969	-20.418392
19423.215160	16876.971667	1779.538086	13.162641
19423.215160	16876.971667	1778.532227	60.961395
19423.215160	16876.971667	1777.527344	6.508775
19423.215160	16876.971667	1776.521484	125.514458
19423.215160	16876.971667	1775.515625	-19.281128
19423.215160	16876.971667	1774.508789	194.632858
19423.215160	16876.971667	1773.502930	-38.062042
19423.215160	16876.971667	1772.496094	-21.379049
19423.215160	16876.971667	1771.489258	135.333527
19423.215160	16876.971667	1770.482422	132.918182
19423.215160	16876.971667	1769.475586	83.005508
19423.215160	16876.971667	1768.467773	-95.051079
19423.215160	16876.971667	1767.460938	165.793655
19423.215160	16876.971667	1766.453125	-76.322533
19423.215160	16876.971667	1765.445313	108.463188
19423.215160	16876.971667	1764.437500	172.224777
19423.215160	16876.971667	1763.428711	-81.717705
19423.215160	16876.971667	1762.420898	152.622726
19423.215160	16876.971667	1761.412109	107.226273
19423.215160	16876.971667	1760.403320	66.547737
19423.215160	16876.971667	1759.393555	295.872864
19423.215160	16876.971667	1758.384766	110.636230
19423.215160	16876.971667	1757.375000	34.348007
19423.215160	16876.971667	1756.366211	14.865750
19423.215160	16876.971667	1755.356445	241.504196
19423.215160	16876.971667	1754.345703	58.626282
19423.215160	16876.971667	1753.335938	107.643501
19423.215160	16876.971667	1752.325195	-65.757545
19423.215160	16876.971667	1751.315430	115.627754
19423.215160	16876.971667	1750.304688	1.325702
19423.215160	16876.971667	1749.292969	182.544937
19423.215160	16876.971667	1748.282227	-73.630760
19423.215160	16876.971667	1747.270508	-20.164591
19423.215160	16876.971667	1746.259766	35.603565
19423.215160	16876.971667	1745.248047	-97.681236
19423.215160	16876.971667	1744.235352	-49.092552
19423.215160	16876.971667	1743.223633	-28.899725
19423.215160	16876.971667	1742.211914	-22.923920
19423.215160	16876.971667	1741.199219	-90.172020
19423.215160	16876.971667	1740.186523	3.049903
19423.215160	16876.971667	1739.173828	115.070763
19423.215160	16876.971667	1738.160156	52.421661
19423.215160	16876.971667	1737.147461	10.984170
19423.215160	16876.971667	1736.133789	7.249342
19423.215160	16876.971667	1735.120117	114.291206
19423.215160	16876.971667	1734.106445	101.019768
19423.215160	16876.971667	1733.091797	-105.562386
19423.215160	16876.971667	1732.078125	39.010735
19423.215160	16876.971667	1731.063477	56.254219
19423.215160	16876.971667	1730.048828	-103.222519
19423.215160	16876.971667	1729.034180	-78.983093
19423.215160	16876.971667	1728.019531	70.001663
19423.215160	16876.971667	1727.003906	89.398201
19423.215160	16876.971667	1725.988281	16.943073
19423.215160	16876.971667	1724.972656	-8.463446
19423.215160	16876.971667	1723.957031	67.269363
19423.215160	16876.971667	1722.941406	147.631622
19423.215160	16876.971667	1721.924805	32.699768
19423.215160	16876.971667	1720.909180	4.774738
19423.215160	16876.971667	1719.892578	122.578758
19423.215160	16876.971667	1718.875977	103.955177
19423.215160	16876.971667	1717.858398	3.031023
19423.215160	16876.971667	1716.841797	7.841032
19423.215160	16876.971667	1715.824219	0.853196
19423.215160	16876.971667	1714.806641	76.031166
19423.215160	16876.971667	1713.789063	19.622946
19423.215160	16876.971667	1712.770508	214.416519
19423.215160	16876.971667	1711.752930	12.364080
19423.215160	16876.971667	1710.734375	-30.060932
19423.215160	16876.971667	1709.715820	-18.545980
19423.215160	16876.971667	1708.697266	105.532944
19423.215160	16876.971667	1707.678711	-5.053656
19423.215160	16876.971667	1706.659180	74.317924
19423.215160	16876.971667	1705.640625	24.650223
19423.215160	16876.971667	1704.621094	141.399612
19423.215160	16876.971667	1703.600586	82.261307
19423.215160	16876.971667	1702.581055	175.425613
19423.215160	16876.971667	1701.561523	125.584549
19423.215160	16876.971667	1700.541016	38.230740
19423.215160	16876.971667	1699.520508	285.782684
19423.215160	16876.971667	1698.500000	-17.095472
19423.215160	16876.971667	1697.478516	220.910034
19423.215160	16876.971667	1696.458008	276.201050
19423.215160	16876.971667	1695.436523	345.461761
19423.215160	16876.971667	1694.415039	178.322784
19423.215160	16876.971667	1693.393555	142.208069
19423.215160	16876.971667	1692.372070	159.856979
19423.215160	16876.971667	1691.349609	130.676819
19423.215160	16876.971667	1690.327148	269.801422
19423.215160	16876.971667	1689.304688	327.008209
19423.215160	16876.971667	1688.282227	255.604004
19423.215160	16876.971667	1687.259766	46.314461
19423.215160	16876.971667	1686.236328	108.060448
19423.215160	16876.971667	1685.213867	302.881531
19423.215160	16876.971667	1684.190430	210.327209
19423.215160	16876.971667	1683.166016	222.830139
19423.215160	16876.971667	1682.142578	232.950668
19423.215160	16876.971667	1681.119141	252.357635
19423.215160	16876.971667	1680.094727	241.371094
19423.215160	16876.971667	1679.070313	351.664429
19423.215160	16876.971667	1678.045898	263.594299
19423.215160	16876.971667	1677.020508	247.805817
19423.215160	16876.971667	1675.996094	481.480988
19423.215160	16876.971667	1674.970703	388.633484
19423.215160	16876.971667	1673.945313	81.337357
19423.215160	16876.971667	1672.919922	291.466858
19423.215160	16876.971667	1671.893555	389.628845
19423.215160	16876.971667	1670.868164	315.328064
19423.215160	16876.971667	1669.841797	282.931274
19423.215160	16876.971667	1668.815430	436.791138
19423.215160	16876.971667	1667.789063	334.450867
19423.215160	16876.971667	1666.761719	439.269135
19423.215160	16876.971667	1665.735352	413.680756
19423.215160	16876.971667	1664.708008	448.552216
19423.215160	16876.971667	1663.680664	415.903351
19423.215160	16876.971667	1662.653320	494.868195
19423.215160	16876.971667	1661.625000	559.803406
19423.215160	16876.971667	1660.597656	492.151001
19423.215160	16876.971667	1659.569336	540.705811
19423.215160	16876.971667	1658.541016	496.236908
19423.215160	16876.971667	1657.512695	556.309143
19423.215160	16876.971667	1656.483398	558.232056
19423.215160	16876.971667	1655.455078	690.194153
19423.215160	16876.971667	1654.425781	571.249756
19423.215160	16876.971667	1653.396484	510.358551
19423.215160	16876.971667	1652.366211	486.588837
19423.215160	16876.971667	1651.336914	838.794495
19423.215160	16876.971667	1650.306641	645.494385
19423.215160	16876.971667	1649.276367	737.601501
19423.215160	16876.971667	1648.246094	551.280396
19423.215160	16876.971667	1647.215820	712.870239
19423.215160	16876.971667	1646.185547	688.862793
19423.215160	16876.971667	1645.154297	720.460754
19423.215160	16876.971667	1644.123047	670.886963
19423.215160	16876.971667	1643.091797	646.787415
19423.215160	16876.971667	1642.060547	923.864685
19423.215160	16876.971667	1641.028320	834.788208
19423.215160	16876.971667	1639.997070	678.552490
19423.215160	16876.971667	1638.964844	1034.083862
19423.215160	16876.971667	1637.931641	1236.637573
19423.215160	16876.971667	1636.899414	892.819519
19423.215160	16876.971667	1635.867188	808.296326
19423.215160	16876.971667	1634.833984	1038.444458
19423.215160	16876.971667	1633.800781	1016.317932
19423.215160	16876.971667	1632.767578	982.602966
19423.215160	16876.971667	1631.734375	1048.306885
19423.215160	16876.971667	1630.700195	1111.636963
19423.215160	16876.971667	1629.666016	1070.892944
19423.215160	16876.971667	1628.631836	1018.579956
19423.215160	16876.971667	1627.597656	1028.645996
19423.215160	16876.971667	1626.563477	909.309204
19423.215160	16876.971667	1625.528320	884.685303
19423.215160	16876.971667	1624.493164	938.560059
19423.215160	16876.971667	1623.458008	1084.741821
19423.215160	16876.971667	1622.422852	1136.196899
19423.215160	16876.971667	1621.387695	1099.903320
19423.215160	16876.971667	1620.351563	1178.968872
19423.215160	16876.971667	1619.315430	1024.965698
19423.215160	16876.971667	1618.279297	1131.646362
19423.215160	16876.971667	1617.243164	1088.362061
19423.215160	16876.971667	1616.207031	1171.886841
19423.215160	16876.971667	1615.169922	1285.318481
19423.215160	16876.971667	1614.132813	1311.102295
19423.215160	16876.971667	1613.095703	1175.549683
19423.215160	16876.971667	1612.058594	1189.785034
19423.215160	16876.971667	1611.020508	1141.794922
19423.215160	16876.971667	1609.983398	1365.567383
19423.215160	16876.971667	1608.945313	1253.053101
19423.215160	16876.971667	1607.907227	1377.683838
19423.215160	16876.971667	1606.868164	1288.186401
19423.215160	16876.971667	1605.830078	1053.737305
19423.215160	16876.971667	1604.791016	1035.631104
19423.215160	16876.971667	1603.751953	1153.235962
19423.215160	16876.971667	1602.712891	1135.088013
19423.215160	16876.971667	1601.673828	1142.227783
19423.215160	16876.971667	1600.633789	1084.972656
19423.215160	16876.971667	1599.594727	1179.438110
19423.215160	16876.971667	1598.554688	1000.377258
19423.215160	16876.971667	1597.513672	1028.155029
19423.215160	16876.971667	1596.473633	1053.622192
19423.215160	16876.971667	1595.433594	922.891113
19423.215160	16876.971667	1594.392578	1017.233154
19423.215160	16876.971667	1593.351563	1079.388062
19423.215160	16876.971667	1592.310547	1125.443481
19423.215160	16876.971667	1591.268555	994.756897
