#X		#Y		#Wave		#Intensity
19456.956649	16935.242000	2000.043945	250.270187
19456.956649	16935.242000	1999.080078	-82.676651
19456.956649	16935.242000	1998.116211	-19.103319
19456.956649	16935.242000	1997.151367	-94.493843
19456.956649	16935.242000	1996.186523	-53.573029
19456.956649	16935.242000	1995.222656	-5.410764
19456.956649	16935.242000	1994.256836	-21.802809
19456.956649	16935.242000	1993.291992	162.230148
19456.956649	16935.242000	1992.327148	-35.238129
19456.956649	16935.242000	1991.361328	-64.443153
19456.956649	16935.242000	1990.395508	205.689545
19456.956649	16935.242000	1989.429688	-24.259371
19456.956649	16935.242000	1988.463867	5.517184
19456.956649	16935.242000	1987.497070	69.790611
19456.956649	16935.242000	1986.531250	-12.002438
19456.956649	16935.242000	1985.564453	-9.810080
19456.956649	16935.242000	1984.597656	-289.563354
19456.956649	16935.242000	1983.630859	-203.508316
19456.956649	16935.242000	1982.664063	-3.916471
19456.956649	16935.242000	1981.696289	296.808563
19456.956649	16935.242000	1980.728516	127.952652
19456.956649	16935.242000	1979.761719	35.622398
19456.956649	16935.242000	1978.792969	-187.635849
19456.956649	16935.242000	1977.825195	114.984276
19456.956649	16935.242000	1976.857422	-56.550339
19456.956649	16935.242000	1975.888672	-524.265442
19456.956649	16935.242000	1974.919922	49.439514
19456.956649	16935.242000	1973.951172	230.577423
19456.956649	16935.242000	1972.982422	-103.963814
19456.956649	16935.242000	1972.013672	-90.714386
19456.956649	16935.242000	1971.043945	-107.122627
19456.956649	16935.242000	1970.075195	191.964951
19456.956649	16935.242000	1969.105469	276.439484
19456.956649	16935.242000	1968.135742	-11.299630
19456.956649	16935.242000	1967.165039	11.470613
19456.956649	16935.242000	1966.195313	248.495728
19456.956649	16935.242000	1965.224609	207.062607
19456.956649	16935.242000	1964.253906	81.869431
19456.956649	16935.242000	1963.283203	23.149115
19456.956649	16935.242000	1962.312500	264.728241
19456.956649	16935.242000	1961.341797	149.300476
19456.956649	16935.242000	1960.370117	198.748245
19456.956649	16935.242000	1959.399414	137.422760
19456.956649	16935.242000	1958.427734	235.975052
19456.956649	16935.242000	1957.455078	86.065277
19456.956649	16935.242000	1956.483398	-100.709198
19456.956649	16935.242000	1955.511719	196.869568
19456.956649	16935.242000	1954.539063	295.214661
19456.956649	16935.242000	1953.566406	51.899075
19456.956649	16935.242000	1952.593750	-125.010963
19456.956649	16935.242000	1951.621094	128.031174
19456.956649	16935.242000	1950.647461	5.166790
19456.956649	16935.242000	1949.674805	78.780334
19456.956649	16935.242000	1948.701172	-53.888432
19456.956649	16935.242000	1947.727539	-19.598713
19456.956649	16935.242000	1946.753906	399.990784
19456.956649	16935.242000	1945.780273	240.293594
19456.956649	16935.242000	1944.805664	-61.649044
19456.956649	16935.242000	1943.831055	225.218002
19456.956649	16935.242000	1942.856445	374.628418
19456.956649	16935.242000	1941.881836	23.755281
19456.956649	16935.242000	1940.907227	-145.577972
19456.956649	16935.242000	1939.932617	79.776268
19456.956649	16935.242000	1938.957031	-35.598125
19456.956649	16935.242000	1937.981445	8.328380
19456.956649	16935.242000	1937.005859	62.035286
19456.956649	16935.242000	1936.030273	103.470802
19456.956649	16935.242000	1935.054688	78.768631
19456.956649	16935.242000	1934.078125	93.254616
19456.956649	16935.242000	1933.101563	249.713959
19456.956649	16935.242000	1932.125000	-19.747101
19456.956649	16935.242000	1931.148438	129.335068
19456.956649	16935.242000	1930.171875	146.248260
19456.956649	16935.242000	1929.194336	229.206802
19456.956649	16935.242000	1928.217773	25.989069
19456.956649	16935.242000	1927.240234	57.595219
19456.956649	16935.242000	1926.262695	20.739876
19456.956649	16935.242000	1925.284180	130.564957
19456.956649	16935.242000	1924.306641	-4.034157
19456.956649	16935.242000	1923.328125	37.350807
19456.956649	16935.242000	1922.350586	56.734287
19456.956649	16935.242000	1921.372070	166.493240
19456.956649	16935.242000	1920.392578	-368.471588
19456.956649	16935.242000	1919.414063	39.209591
19456.956649	16935.242000	1918.434570	263.665619
19456.956649	16935.242000	1917.456055	95.096260
19456.956649	16935.242000	1916.476563	-288.135284
19456.956649	16935.242000	1915.497070	-168.629272
19456.956649	16935.242000	1914.516602	282.585999
19456.956649	16935.242000	1913.537109	58.081196
19456.956649	16935.242000	1912.556641	-137.067627
19456.956649	16935.242000	1911.576172	-68.839798
19456.956649	16935.242000	1910.595703	-120.065346
19456.956649	16935.242000	1909.615234	-117.650528
19456.956649	16935.242000	1908.633789	182.036407
19456.956649	16935.242000	1907.653320	-124.973175
19456.956649	16935.242000	1906.671875	113.726746
19456.956649	16935.242000	1905.690430	194.060974
19456.956649	16935.242000	1904.708984	169.675858
19456.956649	16935.242000	1903.727539	-88.379898
19456.956649	16935.242000	1902.745117	16.310486
19456.956649	16935.242000	1901.762695	167.202927
19456.956649	16935.242000	1900.780273	26.096039
19456.956649	16935.242000	1899.797852	276.677094
19456.956649	16935.242000	1898.815430	281.535675
19456.956649	16935.242000	1897.832031	305.856079
19456.956649	16935.242000	1896.849609	6.835308
19456.956649	16935.242000	1895.866211	310.732788
19456.956649	16935.242000	1894.882813	96.892914
19456.956649	16935.242000	1893.898438	89.671799
19456.956649	16935.242000	1892.915039	-245.501251
19456.956649	16935.242000	1891.930664	-211.359039
19456.956649	16935.242000	1890.947266	-167.515274
19456.956649	16935.242000	1889.962891	51.129280
19456.956649	16935.242000	1888.977539	12.388636
19456.956649	16935.242000	1887.993164	-133.128342
19456.956649	16935.242000	1887.007813	-11.662295
19456.956649	16935.242000	1886.023438	112.178802
19456.956649	16935.242000	1885.038086	95.294907
19456.956649	16935.242000	1884.051758	430.074188
19456.956649	16935.242000	1883.066406	-33.015224
19456.956649	16935.242000	1882.081055	-224.412292
19456.956649	16935.242000	1881.094727	-49.735718
19456.956649	16935.242000	1880.108398	-231.362076
19456.956649	16935.242000	1879.122070	-88.252869
19456.956649	16935.242000	1878.135742	25.731928
19456.956649	16935.242000	1877.148438	-51.665115
19456.956649	16935.242000	1876.162109	323.791687
19456.956649	16935.242000	1875.174805	-49.015446
19456.956649	16935.242000	1874.187500	258.515381
19456.956649	16935.242000	1873.199219	260.984070
19456.956649	16935.242000	1872.211914	-346.332642
19456.956649	16935.242000	1871.223633	-5.064364
19456.956649	16935.242000	1870.236328	-454.897278
19456.956649	16935.242000	1869.248047	-58.130920
19456.956649	16935.242000	1868.258789	-249.072678
19456.956649	16935.242000	1867.270508	-207.883286
19456.956649	16935.242000	1866.282227	-21.697296
19456.956649	16935.242000	1865.292969	-11.996930
19456.956649	16935.242000	1864.303711	-55.467415
19456.956649	16935.242000	1863.314453	-62.699318
19456.956649	16935.242000	1862.324219	-19.217899
19456.956649	16935.242000	1861.334961	-60.289280
19456.956649	16935.242000	1860.344727	202.845291
19456.956649	16935.242000	1859.354492	-96.559898
19456.956649	16935.242000	1858.364258	31.301035
19456.956649	16935.242000	1857.374023	190.464447
19456.956649	16935.242000	1856.383789	98.652252
19456.956649	16935.242000	1855.392578	-111.330902
19456.956649	16935.242000	1854.401367	129.710739
19456.956649	16935.242000	1853.410156	117.473656
19456.956649	16935.242000	1852.418945	-32.189381
19456.956649	16935.242000	1851.426758	235.155090
19456.956649	16935.242000	1850.435547	-85.612198
19456.956649	16935.242000	1849.443359	258.692841
19456.956649	16935.242000	1848.451172	-45.142132
19456.956649	16935.242000	1847.458984	70.177017
19456.956649	16935.242000	1846.466797	-38.512596
19456.956649	16935.242000	1845.473633	136.900085
19456.956649	16935.242000	1844.480469	-113.826508
19456.956649	16935.242000	1843.487305	83.136940
19456.956649	16935.242000	1842.494141	494.145111
19456.956649	16935.242000	1841.500977	-90.988297
19456.956649	16935.242000	1840.506836	60.076126
19456.956649	16935.242000	1839.513672	453.930634
19456.956649	16935.242000	1838.519531	539.854431
19456.956649	16935.242000	1837.525391	-73.819664
19456.956649	16935.242000	1836.530273	89.017220
19456.956649	16935.242000	1835.536133	83.545486
19456.956649	16935.242000	1834.541016	102.069458
19456.956649	16935.242000	1833.545898	-150.884506
19456.956649	16935.242000	1832.550781	30.911358
19456.956649	16935.242000	1831.555664	231.811768
19456.956649	16935.242000	1830.560547	228.536667
19456.956649	16935.242000	1829.564453	-46.002609
19456.956649	16935.242000	1828.568359	233.876755
19456.956649	16935.242000	1827.572266	264.076355
19456.956649	16935.242000	1826.576172	227.054428
19456.956649	16935.242000	1825.580078	26.907927
19456.956649	16935.242000	1824.583008	184.098755
19456.956649	16935.242000	1823.585938	305.224030
19456.956649	16935.242000	1822.588867	169.769318
19456.956649	16935.242000	1821.591797	-59.148853
19456.956649	16935.242000	1820.594727	378.113312
19456.956649	16935.242000	1819.596680	400.705048
19456.956649	16935.242000	1818.599609	528.628540
19456.956649	16935.242000	1817.601563	232.573441
19456.956649	16935.242000	1816.603516	-20.321735
19456.956649	16935.242000	1815.604492	-0.259506
19456.956649	16935.242000	1814.606445	-102.325195
19456.956649	16935.242000	1813.607422	188.055313
19456.956649	16935.242000	1812.608398	50.003147
19456.956649	16935.242000	1811.609375	318.611389
19456.956649	16935.242000	1810.610352	288.104004
19456.956649	16935.242000	1809.610352	145.170807
19456.956649	16935.242000	1808.611328	-79.052177
19456.956649	16935.242000	1807.611328	141.356262
19456.956649	16935.242000	1806.611328	292.318359
19456.956649	16935.242000	1805.610352	419.275696
19456.956649	16935.242000	1804.610352	161.501450
19456.956649	16935.242000	1803.609375	116.348106
19456.956649	16935.242000	1802.608398	171.451035
19456.956649	16935.242000	1801.607422	333.915100
19456.956649	16935.242000	1800.606445	92.827682
19456.956649	16935.242000	1799.605469	35.549530
19456.956649	16935.242000	1798.603516	47.433971
19456.956649	16935.242000	1797.601563	137.983902
19456.956649	16935.242000	1796.599609	137.794525
19456.956649	16935.242000	1795.597656	204.320358
19456.956649	16935.242000	1794.595703	-117.909767
19456.956649	16935.242000	1793.592773	132.082199
19456.956649	16935.242000	1792.589844	103.037773
19456.956649	16935.242000	1791.587891	321.780792
19456.956649	16935.242000	1790.583984	373.593750
19456.956649	16935.242000	1789.581055	172.806503
19456.956649	16935.242000	1788.577148	238.785446
19456.956649	16935.242000	1787.574219	128.456375
19456.956649	16935.242000	1786.570313	310.945251
19456.956649	16935.242000	1785.566406	536.144470
19456.956649	16935.242000	1784.561523	339.941772
19456.956649	16935.242000	1783.557617	422.144379
19456.956649	16935.242000	1782.552734	164.043793
19456.956649	16935.242000	1781.547852	186.645996
19456.956649	16935.242000	1780.542969	256.731873
19456.956649	16935.242000	1779.538086	212.592102
19456.956649	16935.242000	1778.532227	227.828888
19456.956649	16935.242000	1777.527344	250.117554
19456.956649	16935.242000	1776.521484	291.338654
19456.956649	16935.242000	1775.515625	142.402939
19456.956649	16935.242000	1774.508789	69.463234
19456.956649	16935.242000	1773.502930	134.228607
19456.956649	16935.242000	1772.496094	-67.051758
19456.956649	16935.242000	1771.489258	49.796925
19456.956649	16935.242000	1770.482422	-87.448265
19456.956649	16935.242000	1769.475586	-172.508270
19456.956649	16935.242000	1768.467773	-22.709183
19456.956649	16935.242000	1767.460938	153.053528
19456.956649	16935.242000	1766.453125	269.377899
19456.956649	16935.242000	1765.445313	314.443085
19456.956649	16935.242000	1764.437500	342.817291
19456.956649	16935.242000	1763.428711	473.037354
19456.956649	16935.242000	1762.420898	53.288696
19456.956649	16935.242000	1761.412109	76.731178
19456.956649	16935.242000	1760.403320	230.388123
19456.956649	16935.242000	1759.393555	391.016907
19456.956649	16935.242000	1758.384766	295.742950
19456.956649	16935.242000	1757.375000	8.637737
19456.956649	16935.242000	1756.366211	147.682480
19456.956649	16935.242000	1755.356445	7.305789
19456.956649	16935.242000	1754.345703	89.349174
19456.956649	16935.242000	1753.335938	140.524811
19456.956649	16935.242000	1752.325195	89.887840
19456.956649	16935.242000	1751.315430	339.553101
19456.956649	16935.242000	1750.304688	0.261036
19456.956649	16935.242000	1749.292969	20.368834
19456.956649	16935.242000	1748.282227	82.939056
19456.956649	16935.242000	1747.270508	-152.362473
19456.956649	16935.242000	1746.259766	-99.388878
19456.956649	16935.242000	1745.248047	-6.355491
19456.956649	16935.242000	1744.235352	268.430878
19456.956649	16935.242000	1743.223633	-101.640205
19456.956649	16935.242000	1742.211914	130.406509
19456.956649	16935.242000	1741.199219	-67.334793
19456.956649	16935.242000	1740.186523	74.776131
19456.956649	16935.242000	1739.173828	-78.202019
19456.956649	16935.242000	1738.160156	-92.007301
19456.956649	16935.242000	1737.147461	-174.288300
19456.956649	16935.242000	1736.133789	-188.224411
19456.956649	16935.242000	1735.120117	7.614089
19456.956649	16935.242000	1734.106445	66.573074
19456.956649	16935.242000	1733.091797	-74.911995
19456.956649	16935.242000	1732.078125	-221.129532
19456.956649	16935.242000	1731.063477	35.511856
19456.956649	16935.242000	1730.048828	-16.602579
19456.956649	16935.242000	1729.034180	-200.664032
19456.956649	16935.242000	1728.019531	-149.260132
19456.956649	16935.242000	1727.003906	-109.727287
19456.956649	16935.242000	1725.988281	-176.205292
19456.956649	16935.242000	1724.972656	152.628372
19456.956649	16935.242000	1723.957031	-5.790461
19456.956649	16935.242000	1722.941406	-187.746658
19456.956649	16935.242000	1721.924805	-92.176476
19456.956649	16935.242000	1720.909180	-74.315903
19456.956649	16935.242000	1719.892578	-42.432362
19456.956649	16935.242000	1718.875977	-161.077225
19456.956649	16935.242000	1717.858398	-204.548309
19456.956649	16935.242000	1716.841797	33.897503
19456.956649	16935.242000	1715.824219	-263.464722
19456.956649	16935.242000	1714.806641	-213.156784
19456.956649	16935.242000	1713.789063	-97.186043
19456.956649	16935.242000	1712.770508	-272.479553
19456.956649	16935.242000	1711.752930	136.751480
19456.956649	16935.242000	1710.734375	160.834229
19456.956649	16935.242000	1709.715820	41.692619
19456.956649	16935.242000	1708.697266	-28.202183
19456.956649	16935.242000	1707.678711	-196.662216
19456.956649	16935.242000	1706.659180	-175.165619
19456.956649	16935.242000	1705.640625	-78.707909
19456.956649	16935.242000	1704.621094	-80.825928
19456.956649	16935.242000	1703.600586	-36.136539
19456.956649	16935.242000	1702.581055	-26.679796
19456.956649	16935.242000	1701.561523	-94.613579
19456.956649	16935.242000	1700.541016	104.458672
19456.956649	16935.242000	1699.520508	66.832756
19456.956649	16935.242000	1698.500000	-111.342346
19456.956649	16935.242000	1697.478516	-226.306946
19456.956649	16935.242000	1696.458008	-51.033875
19456.956649	16935.242000	1695.436523	266.858948
19456.956649	16935.242000	1694.415039	512.030945
19456.956649	16935.242000	1693.393555	116.049065
19456.956649	16935.242000	1692.372070	295.537018
19456.956649	16935.242000	1691.349609	65.650719
19456.956649	16935.242000	1690.327148	310.416992
19456.956649	16935.242000	1689.304688	274.514221
19456.956649	16935.242000	1688.282227	413.851288
19456.956649	16935.242000	1687.259766	258.649506
19456.956649	16935.242000	1686.236328	117.461052
19456.956649	16935.242000	1685.213867	462.121063
19456.956649	16935.242000	1684.190430	337.176483
19456.956649	16935.242000	1683.166016	55.780216
19456.956649	16935.242000	1682.142578	199.310699
19456.956649	16935.242000	1681.119141	352.066101
19456.956649	16935.242000	1680.094727	140.664764
19456.956649	16935.242000	1679.070313	237.261169
19456.956649	16935.242000	1678.045898	371.090454
19456.956649	16935.242000	1677.020508	94.337181
19456.956649	16935.242000	1675.996094	169.741776
19456.956649	16935.242000	1674.970703	298.676575
19456.956649	16935.242000	1673.945313	369.241669
19456.956649	16935.242000	1672.919922	278.928101
19456.956649	16935.242000	1671.893555	141.994446
19456.956649	16935.242000	1670.868164	356.828125
19456.956649	16935.242000	1669.841797	294.365479
19456.956649	16935.242000	1668.815430	350.636627
19456.956649	16935.242000	1667.789063	318.370850
19456.956649	16935.242000	1666.761719	323.309021
19456.956649	16935.242000	1665.735352	442.239410
19456.956649	16935.242000	1664.708008	286.512024
19456.956649	16935.242000	1663.680664	416.942383
19456.956649	16935.242000	1662.653320	347.250031
19456.956649	16935.242000	1661.625000	286.837830
19456.956649	16935.242000	1660.597656	572.843994
19456.956649	16935.242000	1659.569336	437.944489
19456.956649	16935.242000	1658.541016	240.304550
19456.956649	16935.242000	1657.512695	549.264893
19456.956649	16935.242000	1656.483398	628.060303
19456.956649	16935.242000	1655.455078	618.530518
19456.956649	16935.242000	1654.425781	474.267151
19456.956649	16935.242000	1653.396484	687.591980
19456.956649	16935.242000	1652.366211	740.614624
19456.956649	16935.242000	1651.336914	399.024689
19456.956649	16935.242000	1650.306641	523.952759
19456.956649	16935.242000	1649.276367	873.849487
19456.956649	16935.242000	1648.246094	873.313538
19456.956649	16935.242000	1647.215820	935.367310
19456.956649	16935.242000	1646.185547	930.125000
19456.956649	16935.242000	1645.154297	934.121948
19456.956649	16935.242000	1644.123047	956.631287
19456.956649	16935.242000	1643.091797	983.741882
19456.956649	16935.242000	1642.060547	1052.521118
19456.956649	16935.242000	1641.028320	1056.381104
19456.956649	16935.242000	1639.997070	962.949646
19456.956649	16935.242000	1638.964844	1024.669189
19456.956649	16935.242000	1637.931641	1264.601318
19456.956649	16935.242000	1636.899414	1226.664795
19456.956649	16935.242000	1635.867188	1413.203491
19456.956649	16935.242000	1634.833984	1238.691895
19456.956649	16935.242000	1633.800781	1048.038330
19456.956649	16935.242000	1632.767578	1255.259277
19456.956649	16935.242000	1631.734375	1127.078613
19456.956649	16935.242000	1630.700195	966.558533
19456.956649	16935.242000	1629.666016	1340.054810
19456.956649	16935.242000	1628.631836	1140.240112
19456.956649	16935.242000	1627.597656	1273.224976
19456.956649	16935.242000	1626.563477	1373.803345
19456.956649	16935.242000	1625.528320	1176.369629
19456.956649	16935.242000	1624.493164	1581.730591
19456.956649	16935.242000	1623.458008	1358.918579
19456.956649	16935.242000	1622.422852	1540.157227
19456.956649	16935.242000	1621.387695	1474.367432
19456.956649	16935.242000	1620.351563	1676.262207
19456.956649	16935.242000	1619.315430	1538.937134
19456.956649	16935.242000	1618.279297	1463.942261
19456.956649	16935.242000	1617.243164	1584.997314
19456.956649	16935.242000	1616.207031	2127.950928
19456.956649	16935.242000	1615.169922	1571.074707
19456.956649	16935.242000	1614.132813	1821.103027
19456.956649	16935.242000	1613.095703	1925.859253
19456.956649	16935.242000	1612.058594	1832.442139
19456.956649	16935.242000	1611.020508	2040.814453
19456.956649	16935.242000	1609.983398	2064.875732
19456.956649	16935.242000	1608.945313	2019.849854
19456.956649	16935.242000	1607.907227	1845.930054
19456.956649	16935.242000	1606.868164	1994.313721
19456.956649	16935.242000	1605.830078	1677.808594
19456.956649	16935.242000	1604.791016	1522.485962
19456.956649	16935.242000	1603.751953	1397.138916
19456.956649	16935.242000	1602.712891	2122.809570
19456.956649	16935.242000	1601.673828	1698.494873
19456.956649	16935.242000	1600.633789	1957.152222
19456.956649	16935.242000	1599.594727	1670.979736
19456.956649	16935.242000	1598.554688	1729.640625
19456.956649	16935.242000	1597.513672	1627.456299
19456.956649	16935.242000	1596.473633	1637.898438
19456.956649	16935.242000	1595.433594	1662.138916
19456.956649	16935.242000	1594.392578	1973.420166
19456.956649	16935.242000	1593.351563	1485.648560
