#X		#Y		#Wave		#Intensity
2762.056862	17388.714000	2000.043945	119.928169
2762.056862	17388.714000	1999.080078	-110.370728
2762.056862	17388.714000	1998.116211	36.803242
2762.056862	17388.714000	1997.151367	-48.832626
2762.056862	17388.714000	1996.186523	26.804474
2762.056862	17388.714000	1995.222656	15.896346
2762.056862	17388.714000	1994.256836	57.174847
2762.056862	17388.714000	1993.291992	49.084743
2762.056862	17388.714000	1992.327148	-114.816650
2762.056862	17388.714000	1991.361328	-6.207512
2762.056862	17388.714000	1990.395508	144.588501
2762.056862	17388.714000	1989.429688	-88.069145
2762.056862	17388.714000	1988.463867	55.552235
2762.056862	17388.714000	1987.497070	-25.840620
2762.056862	17388.714000	1986.531250	83.360741
2762.056862	17388.714000	1985.564453	2.250479
2762.056862	17388.714000	1984.597656	-41.626011
2762.056862	17388.714000	1983.630859	92.594490
2762.056862	17388.714000	1982.664063	-2.951251
2762.056862	17388.714000	1981.696289	-14.348941
2762.056862	17388.714000	1980.728516	-186.213348
2762.056862	17388.714000	1979.761719	-9.659510
2762.056862	17388.714000	1978.792969	6.406570
2762.056862	17388.714000	1977.825195	-46.574734
2762.056862	17388.714000	1976.857422	-200.659058
2762.056862	17388.714000	1975.888672	-88.056870
2762.056862	17388.714000	1974.919922	-24.770540
2762.056862	17388.714000	1973.951172	4.027181
2762.056862	17388.714000	1972.982422	153.750565
2762.056862	17388.714000	1972.013672	66.728035
2762.056862	17388.714000	1971.043945	115.416992
2762.056862	17388.714000	1970.075195	80.327858
2762.056862	17388.714000	1969.105469	-8.919651
2762.056862	17388.714000	1968.135742	76.891983
2762.056862	17388.714000	1967.165039	-44.248978
2762.056862	17388.714000	1966.195313	4.682446
2762.056862	17388.714000	1965.224609	63.491322
2762.056862	17388.714000	1964.253906	107.544716
2762.056862	17388.714000	1963.283203	-25.650383
2762.056862	17388.714000	1962.312500	-13.523444
2762.056862	17388.714000	1961.341797	-11.211849
2762.056862	17388.714000	1960.370117	271.652435
2762.056862	17388.714000	1959.399414	-104.913445
2762.056862	17388.714000	1958.427734	111.503136
2762.056862	17388.714000	1957.455078	86.845230
2762.056862	17388.714000	1956.483398	-45.972473
2762.056862	17388.714000	1955.511719	118.749527
2762.056862	17388.714000	1954.539063	-13.989325
2762.056862	17388.714000	1953.566406	-104.884979
2762.056862	17388.714000	1952.593750	67.173851
2762.056862	17388.714000	1951.621094	177.764359
2762.056862	17388.714000	1950.647461	-131.681091
2762.056862	17388.714000	1949.674805	18.214340
2762.056862	17388.714000	1948.701172	-94.652367
2762.056862	17388.714000	1947.727539	-106.825516
2762.056862	17388.714000	1946.753906	-37.999119
2762.056862	17388.714000	1945.780273	65.157288
2762.056862	17388.714000	1944.805664	-54.986069
2762.056862	17388.714000	1943.831055	80.021812
2762.056862	17388.714000	1942.856445	153.662918
2762.056862	17388.714000	1941.881836	53.177078
2762.056862	17388.714000	1940.907227	94.914543
2762.056862	17388.714000	1939.932617	67.998055
2762.056862	17388.714000	1938.957031	-69.198959
2762.056862	17388.714000	1937.981445	26.418346
2762.056862	17388.714000	1937.005859	124.438675
2762.056862	17388.714000	1936.030273	-83.754311
2762.056862	17388.714000	1935.054688	19.122501
2762.056862	17388.714000	1934.078125	68.082336
2762.056862	17388.714000	1933.101563	195.343338
2762.056862	17388.714000	1932.125000	-2.975333
2762.056862	17388.714000	1931.148438	102.194756
2762.056862	17388.714000	1930.171875	1.795112
2762.056862	17388.714000	1929.194336	-27.647289
2762.056862	17388.714000	1928.217773	45.618690
2762.056862	17388.714000	1927.240234	30.810009
2762.056862	17388.714000	1926.262695	55.102196
2762.056862	17388.714000	1925.284180	135.580872
2762.056862	17388.714000	1924.306641	3.393926
2762.056862	17388.714000	1923.328125	-62.795433
2762.056862	17388.714000	1922.350586	-168.070618
2762.056862	17388.714000	1921.372070	156.544052
2762.056862	17388.714000	1920.392578	68.310608
2762.056862	17388.714000	1919.414063	60.656590
2762.056862	17388.714000	1918.434570	45.655254
2762.056862	17388.714000	1917.456055	30.633713
2762.056862	17388.714000	1916.476563	54.632927
2762.056862	17388.714000	1915.497070	34.680508
2762.056862	17388.714000	1914.516602	107.399170
2762.056862	17388.714000	1913.537109	-134.545776
2762.056862	17388.714000	1912.556641	96.613029
2762.056862	17388.714000	1911.576172	-77.037025
2762.056862	17388.714000	1910.595703	-84.905518
2762.056862	17388.714000	1909.615234	63.167339
2762.056862	17388.714000	1908.633789	99.071777
2762.056862	17388.714000	1907.653320	-164.707138
2762.056862	17388.714000	1906.671875	148.827225
2762.056862	17388.714000	1905.690430	-54.047073
2762.056862	17388.714000	1904.708984	-66.968033
2762.056862	17388.714000	1903.727539	129.431244
2762.056862	17388.714000	1902.745117	67.737167
2762.056862	17388.714000	1901.762695	18.200615
2762.056862	17388.714000	1900.780273	165.715866
2762.056862	17388.714000	1899.797852	264.492645
2762.056862	17388.714000	1898.815430	-52.673389
2762.056862	17388.714000	1897.832031	-131.464508
2762.056862	17388.714000	1896.849609	-117.878212
2762.056862	17388.714000	1895.866211	63.382320
2762.056862	17388.714000	1894.882813	-83.535271
2762.056862	17388.714000	1893.898438	-74.931503
2762.056862	17388.714000	1892.915039	-93.086807
2762.056862	17388.714000	1891.930664	143.755356
2762.056862	17388.714000	1890.947266	-46.919655
2762.056862	17388.714000	1889.962891	10.087919
2762.056862	17388.714000	1888.977539	1.494607
2762.056862	17388.714000	1887.993164	121.500816
2762.056862	17388.714000	1887.007813	-27.922394
2762.056862	17388.714000	1886.023438	16.762449
2762.056862	17388.714000	1885.038086	155.993073
2762.056862	17388.714000	1884.051758	130.219391
2762.056862	17388.714000	1883.066406	-220.494522
2762.056862	17388.714000	1882.081055	-93.530518
2762.056862	17388.714000	1881.094727	-160.560638
2762.056862	17388.714000	1880.108398	-38.579243
2762.056862	17388.714000	1879.122070	-64.480042
2762.056862	17388.714000	1878.135742	-177.617676
2762.056862	17388.714000	1877.148438	-24.331303
2762.056862	17388.714000	1876.162109	12.626238
2762.056862	17388.714000	1875.174805	175.426346
2762.056862	17388.714000	1874.187500	120.268219
2762.056862	17388.714000	1873.199219	40.887749
2762.056862	17388.714000	1872.211914	-28.821119
2762.056862	17388.714000	1871.223633	-40.483196
2762.056862	17388.714000	1870.236328	-134.417282
2762.056862	17388.714000	1869.248047	44.918663
2762.056862	17388.714000	1868.258789	132.263611
2762.056862	17388.714000	1867.270508	76.907372
2762.056862	17388.714000	1866.282227	67.454811
2762.056862	17388.714000	1865.292969	118.376839
2762.056862	17388.714000	1864.303711	227.225540
2762.056862	17388.714000	1863.314453	-113.319557
2762.056862	17388.714000	1862.324219	280.441803
2762.056862	17388.714000	1861.334961	-11.773360
2762.056862	17388.714000	1860.344727	72.707130
2762.056862	17388.714000	1859.354492	-2.199222
2762.056862	17388.714000	1858.364258	-72.292419
2762.056862	17388.714000	1857.374023	-0.038491
2762.056862	17388.714000	1856.383789	-9.879050
2762.056862	17388.714000	1855.392578	-183.779175
2762.056862	17388.714000	1854.401367	30.607536
2762.056862	17388.714000	1853.410156	208.702728
2762.056862	17388.714000	1852.418945	133.566727
2762.056862	17388.714000	1851.426758	227.127823
2762.056862	17388.714000	1850.435547	132.650757
2762.056862	17388.714000	1849.443359	-14.842677
2762.056862	17388.714000	1848.451172	326.672852
2762.056862	17388.714000	1847.458984	109.264496
2762.056862	17388.714000	1846.466797	62.857742
2762.056862	17388.714000	1845.473633	223.464615
2762.056862	17388.714000	1844.480469	102.341026
2762.056862	17388.714000	1843.487305	84.699615
2762.056862	17388.714000	1842.494141	240.261765
2762.056862	17388.714000	1841.500977	8.401231
2762.056862	17388.714000	1840.506836	228.762558
2762.056862	17388.714000	1839.513672	-152.200150
2762.056862	17388.714000	1838.519531	-20.946552
2762.056862	17388.714000	1837.525391	-257.584717
2762.056862	17388.714000	1836.530273	65.812943
2762.056862	17388.714000	1835.536133	107.896149
2762.056862	17388.714000	1834.541016	49.003696
2762.056862	17388.714000	1833.545898	83.764992
2762.056862	17388.714000	1832.550781	185.708023
2762.056862	17388.714000	1831.555664	97.870537
2762.056862	17388.714000	1830.560547	91.639885
2762.056862	17388.714000	1829.564453	42.152252
2762.056862	17388.714000	1828.568359	170.216934
2762.056862	17388.714000	1827.572266	-71.318748
2762.056862	17388.714000	1826.576172	-53.734474
2762.056862	17388.714000	1825.580078	35.743801
2762.056862	17388.714000	1824.583008	-18.748009
2762.056862	17388.714000	1823.585938	49.000992
2762.056862	17388.714000	1822.588867	-51.124817
2762.056862	17388.714000	1821.591797	-5.073092
2762.056862	17388.714000	1820.594727	0.171403
2762.056862	17388.714000	1819.596680	10.146640
2762.056862	17388.714000	1818.599609	15.275425
2762.056862	17388.714000	1817.601563	61.053963
2762.056862	17388.714000	1816.603516	-94.369026
2762.056862	17388.714000	1815.604492	209.839127
2762.056862	17388.714000	1814.606445	63.905327
2762.056862	17388.714000	1813.607422	71.118324
2762.056862	17388.714000	1812.608398	87.840897
2762.056862	17388.714000	1811.609375	133.202499
2762.056862	17388.714000	1810.610352	94.779831
2762.056862	17388.714000	1809.610352	-24.995161
2762.056862	17388.714000	1808.611328	41.699791
2762.056862	17388.714000	1807.611328	7.911532
2762.056862	17388.714000	1806.611328	-21.147240
2762.056862	17388.714000	1805.610352	181.511795
2762.056862	17388.714000	1804.610352	68.694778
2762.056862	17388.714000	1803.609375	-48.925968
2762.056862	17388.714000	1802.608398	-32.833805
2762.056862	17388.714000	1801.607422	-112.315323
2762.056862	17388.714000	1800.606445	-48.602432
2762.056862	17388.714000	1799.605469	-125.794228
2762.056862	17388.714000	1798.603516	-38.375477
2762.056862	17388.714000	1797.601563	-27.401533
2762.056862	17388.714000	1796.599609	-102.371887
2762.056862	17388.714000	1795.597656	-222.692276
2762.056862	17388.714000	1794.595703	-59.286045
2762.056862	17388.714000	1793.592773	-70.047440
2762.056862	17388.714000	1792.589844	-68.955345
2762.056862	17388.714000	1791.587891	-120.354599
2762.056862	17388.714000	1790.583984	40.238575
2762.056862	17388.714000	1789.581055	98.273041
2762.056862	17388.714000	1788.577148	-179.616867
2762.056862	17388.714000	1787.574219	87.849724
2762.056862	17388.714000	1786.570313	198.001190
2762.056862	17388.714000	1785.566406	-10.933834
2762.056862	17388.714000	1784.561523	-8.053358
2762.056862	17388.714000	1783.557617	42.347843
2762.056862	17388.714000	1782.552734	-209.487320
2762.056862	17388.714000	1781.547852	-18.885639
2762.056862	17388.714000	1780.542969	-137.586853
2762.056862	17388.714000	1779.538086	-108.902954
2762.056862	17388.714000	1778.532227	116.996376
2762.056862	17388.714000	1777.527344	5.239051
2762.056862	17388.714000	1776.521484	-42.398659
2762.056862	17388.714000	1775.515625	-52.081985
2762.056862	17388.714000	1774.508789	-30.967237
2762.056862	17388.714000	1773.502930	16.193245
2762.056862	17388.714000	1772.496094	-15.109028
2762.056862	17388.714000	1771.489258	-153.313416
2762.056862	17388.714000	1770.482422	-37.567825
2762.056862	17388.714000	1769.475586	-47.724281
2762.056862	17388.714000	1768.467773	108.124939
2762.056862	17388.714000	1767.460938	88.291878
2762.056862	17388.714000	1766.453125	30.428295
2762.056862	17388.714000	1765.445313	48.388271
2762.056862	17388.714000	1764.437500	123.159653
2762.056862	17388.714000	1763.428711	-245.466415
2762.056862	17388.714000	1762.420898	73.276009
2762.056862	17388.714000	1761.412109	57.696152
2762.056862	17388.714000	1760.403320	169.968796
2762.056862	17388.714000	1759.393555	109.192421
2762.056862	17388.714000	1758.384766	48.362114
2762.056862	17388.714000	1757.375000	37.182980
2762.056862	17388.714000	1756.366211	134.825241
2762.056862	17388.714000	1755.356445	206.299362
2762.056862	17388.714000	1754.345703	-115.174591
2762.056862	17388.714000	1753.335938	34.219604
2762.056862	17388.714000	1752.325195	-3.416261
2762.056862	17388.714000	1751.315430	145.722672
2762.056862	17388.714000	1750.304688	200.120667
2762.056862	17388.714000	1749.292969	60.538841
2762.056862	17388.714000	1748.282227	126.570656
2762.056862	17388.714000	1747.270508	199.566101
2762.056862	17388.714000	1746.259766	88.154152
2762.056862	17388.714000	1745.248047	300.325134
2762.056862	17388.714000	1744.235352	233.609665
2762.056862	17388.714000	1743.223633	171.559143
2762.056862	17388.714000	1742.211914	241.654785
2762.056862	17388.714000	1741.199219	96.811050
2762.056862	17388.714000	1740.186523	143.097061
2762.056862	17388.714000	1739.173828	57.130695
2762.056862	17388.714000	1738.160156	105.566422
2762.056862	17388.714000	1737.147461	193.998672
2762.056862	17388.714000	1736.133789	223.334244
2762.056862	17388.714000	1735.120117	283.215027
2762.056862	17388.714000	1734.106445	154.384872
2762.056862	17388.714000	1733.091797	261.192230
2762.056862	17388.714000	1732.078125	94.519508
2762.056862	17388.714000	1731.063477	215.240494
2762.056862	17388.714000	1730.048828	328.751434
2762.056862	17388.714000	1729.034180	406.795258
2762.056862	17388.714000	1728.019531	397.587646
2762.056862	17388.714000	1727.003906	322.355377
2762.056862	17388.714000	1725.988281	289.421875
2762.056862	17388.714000	1724.972656	272.876831
2762.056862	17388.714000	1723.957031	46.831417
2762.056862	17388.714000	1722.941406	314.788391
2762.056862	17388.714000	1721.924805	410.835541
2762.056862	17388.714000	1720.909180	440.915955
2762.056862	17388.714000	1719.892578	390.935730
2762.056862	17388.714000	1718.875977	169.278534
2762.056862	17388.714000	1717.858398	521.041565
2762.056862	17388.714000	1716.841797	346.240051
2762.056862	17388.714000	1715.824219	556.677734
2762.056862	17388.714000	1714.806641	586.072754
2762.056862	17388.714000	1713.789063	563.691589
2762.056862	17388.714000	1712.770508	531.814636
2762.056862	17388.714000	1711.752930	727.569458
2762.056862	17388.714000	1710.734375	690.778503
2762.056862	17388.714000	1709.715820	501.371307
2762.056862	17388.714000	1708.697266	577.051941
2762.056862	17388.714000	1707.678711	479.019623
2762.056862	17388.714000	1706.659180	629.508423
2762.056862	17388.714000	1705.640625	683.714355
2762.056862	17388.714000	1704.621094	639.323181
2762.056862	17388.714000	1703.600586	894.854187
2762.056862	17388.714000	1702.581055	744.782288
2762.056862	17388.714000	1701.561523	756.334595
2762.056862	17388.714000	1700.541016	727.944824
2762.056862	17388.714000	1699.520508	891.517212
2762.056862	17388.714000	1698.500000	797.343750
2762.056862	17388.714000	1697.478516	782.693054
2762.056862	17388.714000	1696.458008	1004.378052
2762.056862	17388.714000	1695.436523	933.324219
2762.056862	17388.714000	1694.415039	1121.921631
2762.056862	17388.714000	1693.393555	898.611694
2762.056862	17388.714000	1692.372070	991.046204
2762.056862	17388.714000	1691.349609	1176.869995
2762.056862	17388.714000	1690.327148	1292.380859
2762.056862	17388.714000	1689.304688	1031.394531
2762.056862	17388.714000	1688.282227	943.357300
2762.056862	17388.714000	1687.259766	1163.700317
2762.056862	17388.714000	1686.236328	989.017273
2762.056862	17388.714000	1685.213867	849.353882
2762.056862	17388.714000	1684.190430	947.837769
2762.056862	17388.714000	1683.166016	987.797119
2762.056862	17388.714000	1682.142578	997.311340
2762.056862	17388.714000	1681.119141	1104.751465
2762.056862	17388.714000	1680.094727	808.331909
2762.056862	17388.714000	1679.070313	889.892578
2762.056862	17388.714000	1678.045898	968.992371
2762.056862	17388.714000	1677.020508	929.006775
2762.056862	17388.714000	1675.996094	837.657776
2762.056862	17388.714000	1674.970703	1142.555054
2762.056862	17388.714000	1673.945313	1195.506836
2762.056862	17388.714000	1672.919922	964.031982
2762.056862	17388.714000	1671.893555	823.404114
2762.056862	17388.714000	1670.868164	1008.885132
2762.056862	17388.714000	1669.841797	1217.474609
2762.056862	17388.714000	1668.815430	1321.103271
2762.056862	17388.714000	1667.789063	1208.079224
2762.056862	17388.714000	1666.761719	1225.341675
2762.056862	17388.714000	1665.735352	1517.139771
2762.056862	17388.714000	1664.708008	1764.507568
2762.056862	17388.714000	1663.680664	1688.324463
2762.056862	17388.714000	1662.653320	1656.272583
2762.056862	17388.714000	1661.625000	1733.423706
2762.056862	17388.714000	1660.597656	1831.396973
2762.056862	17388.714000	1659.569336	1757.209106
2762.056862	17388.714000	1658.541016	1638.803345
2762.056862	17388.714000	1657.512695	1734.134644
2762.056862	17388.714000	1656.483398	1929.222412
2762.056862	17388.714000	1655.455078	1838.465088
2762.056862	17388.714000	1654.425781	1710.483154
2762.056862	17388.714000	1653.396484	1661.409790
2762.056862	17388.714000	1652.366211	1670.288940
2762.056862	17388.714000	1651.336914	2010.998779
2762.056862	17388.714000	1650.306641	1926.819824
2762.056862	17388.714000	1649.276367	1772.988770
2762.056862	17388.714000	1648.246094	1834.861206
2762.056862	17388.714000	1647.215820	2005.631104
2762.056862	17388.714000	1646.185547	2090.462646
2762.056862	17388.714000	1645.154297	1827.421265
2762.056862	17388.714000	1644.123047	2134.590576
2762.056862	17388.714000	1643.091797	1927.104980
2762.056862	17388.714000	1642.060547	2303.490967
2762.056862	17388.714000	1641.028320	2151.478027
2762.056862	17388.714000	1639.997070	2400.141602
2762.056862	17388.714000	1638.964844	2396.217773
2762.056862	17388.714000	1637.931641	2480.178955
2762.056862	17388.714000	1636.899414	2545.536377
2762.056862	17388.714000	1635.867188	2788.994385
2762.056862	17388.714000	1634.833984	2675.944580
2762.056862	17388.714000	1633.800781	2787.263672
2762.056862	17388.714000	1632.767578	2764.323242
2762.056862	17388.714000	1631.734375	2896.258545
2762.056862	17388.714000	1630.700195	2547.161621
2762.056862	17388.714000	1629.666016	2803.760010
2762.056862	17388.714000	1628.631836	2775.929688
2762.056862	17388.714000	1627.597656	2785.016602
2762.056862	17388.714000	1626.563477	2766.315918
2762.056862	17388.714000	1625.528320	2930.011475
2762.056862	17388.714000	1624.493164	2848.798584
2762.056862	17388.714000	1623.458008	2783.718994
2762.056862	17388.714000	1622.422852	2753.232910
2762.056862	17388.714000	1621.387695	2868.103516
2762.056862	17388.714000	1620.351563	2509.814453
2762.056862	17388.714000	1619.315430	2516.126221
2762.056862	17388.714000	1618.279297	2642.325195
2762.056862	17388.714000	1617.243164	2364.844238
2762.056862	17388.714000	1616.207031	2719.186523
2762.056862	17388.714000	1615.169922	2692.951172
2762.056862	17388.714000	1614.132813	2668.984863
2762.056862	17388.714000	1613.095703	2748.673340
2762.056862	17388.714000	1612.058594	3005.688232
2762.056862	17388.714000	1611.020508	3020.673096
2762.056862	17388.714000	1609.983398	2883.629395
2762.056862	17388.714000	1608.945313	2972.228027
2762.056862	17388.714000	1607.907227	2996.292725
2762.056862	17388.714000	1606.868164	2988.062744
2762.056862	17388.714000	1605.830078	3331.907227
2762.056862	17388.714000	1604.791016	3314.336914
2762.056862	17388.714000	1603.751953	3565.874512
2762.056862	17388.714000	1602.712891	3559.693359
2762.056862	17388.714000	1601.673828	3661.554932
2762.056862	17388.714000	1600.633789	3979.430420
2762.056862	17388.714000	1599.594727	3504.173828
2762.056862	17388.714000	1598.554688	3789.721191
2762.056862	17388.714000	1597.513672	4323.253906
2762.056862	17388.714000	1596.473633	4093.906250
2762.056862	17388.714000	1595.433594	4066.734863
2762.056862	17388.714000	1594.392578	4175.011719
2762.056862	17388.714000	1593.351563	4028.385010
2762.056862	17388.714000	1592.310547	4187.081055
2762.056862	17388.714000	1591.268555	4143.722168
2762.056862	17388.714000	1590.227539	4350.481934
2762.056862	17388.714000	1589.185547	4233.662598
2762.056862	17388.714000	1588.143555	3940.267334
2762.056862	17388.714000	1587.100586	4043.668701
2762.056862	17388.714000	1586.058594	4119.525391
2762.056862	17388.714000	1585.015625	3858.358887
