#X		#Y		#Wave		#Intensity
2753.436011	17402.345500	2000.043945	-56.950768
2753.436011	17402.345500	1999.080078	-82.053055
2753.436011	17402.345500	1998.116211	33.205772
2753.436011	17402.345500	1997.151367	39.244694
2753.436011	17402.345500	1996.186523	52.578728
2753.436011	17402.345500	1995.222656	-53.131641
2753.436011	17402.345500	1994.256836	-67.285194
2753.436011	17402.345500	1993.291992	101.691208
2753.436011	17402.345500	1992.327148	87.273857
2753.436011	17402.345500	1991.361328	139.586411
2753.436011	17402.345500	1990.395508	174.446289
2753.436011	17402.345500	1989.429688	38.449520
2753.436011	17402.345500	1988.463867	1.363374
2753.436011	17402.345500	1987.497070	6.245778
2753.436011	17402.345500	1986.531250	119.849663
2753.436011	17402.345500	1985.564453	57.765572
2753.436011	17402.345500	1984.597656	42.590313
2753.436011	17402.345500	1983.630859	47.113163
2753.436011	17402.345500	1982.664063	130.636490
2753.436011	17402.345500	1981.696289	162.166885
2753.436011	17402.345500	1980.728516	87.389496
2753.436011	17402.345500	1979.761719	-51.646053
2753.436011	17402.345500	1978.792969	-12.895375
2753.436011	17402.345500	1977.825195	168.978958
2753.436011	17402.345500	1976.857422	74.252968
2753.436011	17402.345500	1975.888672	-35.302502
2753.436011	17402.345500	1974.919922	52.537666
2753.436011	17402.345500	1973.951172	-12.668558
2753.436011	17402.345500	1972.982422	116.970215
2753.436011	17402.345500	1972.013672	64.014252
2753.436011	17402.345500	1971.043945	89.939316
2753.436011	17402.345500	1970.075195	-54.291328
2753.436011	17402.345500	1969.105469	-80.193726
2753.436011	17402.345500	1968.135742	103.351593
2753.436011	17402.345500	1967.165039	-43.372894
2753.436011	17402.345500	1966.195313	68.592171
2753.436011	17402.345500	1965.224609	-36.260040
2753.436011	17402.345500	1964.253906	-3.196904
2753.436011	17402.345500	1963.283203	7.670302
2753.436011	17402.345500	1962.312500	65.281509
2753.436011	17402.345500	1961.341797	58.859299
2753.436011	17402.345500	1960.370117	47.498020
2753.436011	17402.345500	1959.399414	-10.621406
2753.436011	17402.345500	1958.427734	-9.700415
2753.436011	17402.345500	1957.455078	55.148811
2753.436011	17402.345500	1956.483398	112.585136
2753.436011	17402.345500	1955.511719	69.192329
2753.436011	17402.345500	1954.539063	3.683452
2753.436011	17402.345500	1953.566406	-2.828963
2753.436011	17402.345500	1952.593750	12.767276
2753.436011	17402.345500	1951.621094	87.311356
2753.436011	17402.345500	1950.647461	-88.706558
2753.436011	17402.345500	1949.674805	-28.913517
2753.436011	17402.345500	1948.701172	52.951202
2753.436011	17402.345500	1947.727539	-76.327286
2753.436011	17402.345500	1946.753906	101.233505
2753.436011	17402.345500	1945.780273	82.419235
2753.436011	17402.345500	1944.805664	24.357960
2753.436011	17402.345500	1943.831055	221.429321
2753.436011	17402.345500	1942.856445	11.314859
2753.436011	17402.345500	1941.881836	137.213608
2753.436011	17402.345500	1940.907227	160.103867
2753.436011	17402.345500	1939.932617	40.825714
2753.436011	17402.345500	1938.957031	-46.543800
2753.436011	17402.345500	1937.981445	-114.271317
2753.436011	17402.345500	1937.005859	85.058807
2753.436011	17402.345500	1936.030273	-34.087540
2753.436011	17402.345500	1935.054688	-52.777710
2753.436011	17402.345500	1934.078125	102.384514
2753.436011	17402.345500	1933.101563	-16.671438
2753.436011	17402.345500	1932.125000	-125.882172
2753.436011	17402.345500	1931.148438	-63.749760
2753.436011	17402.345500	1930.171875	-23.648867
2753.436011	17402.345500	1929.194336	9.109579
2753.436011	17402.345500	1928.217773	83.444214
2753.436011	17402.345500	1927.240234	-23.183193
2753.436011	17402.345500	1926.262695	73.155495
2753.436011	17402.345500	1925.284180	71.698090
2753.436011	17402.345500	1924.306641	-34.830841
2753.436011	17402.345500	1923.328125	83.483086
2753.436011	17402.345500	1922.350586	23.432196
2753.436011	17402.345500	1921.372070	44.017292
2753.436011	17402.345500	1920.392578	49.954746
2753.436011	17402.345500	1919.414063	41.254009
2753.436011	17402.345500	1918.434570	-55.311176
2753.436011	17402.345500	1917.456055	45.865223
2753.436011	17402.345500	1916.476563	61.609192
2753.436011	17402.345500	1915.497070	18.805450
2753.436011	17402.345500	1914.516602	56.526134
2753.436011	17402.345500	1913.537109	-88.666397
2753.436011	17402.345500	1912.556641	-58.230801
2753.436011	17402.345500	1911.576172	67.284386
2753.436011	17402.345500	1910.595703	-33.919884
2753.436011	17402.345500	1909.615234	30.641497
2753.436011	17402.345500	1908.633789	-60.749920
2753.436011	17402.345500	1907.653320	128.055359
2753.436011	17402.345500	1906.671875	-70.467224
2753.436011	17402.345500	1905.690430	-30.257029
2753.436011	17402.345500	1904.708984	39.165104
2753.436011	17402.345500	1903.727539	11.199700
2753.436011	17402.345500	1902.745117	90.341637
2753.436011	17402.345500	1901.762695	45.361408
2753.436011	17402.345500	1900.780273	90.423653
2753.436011	17402.345500	1899.797852	57.638794
2753.436011	17402.345500	1898.815430	109.993698
2753.436011	17402.345500	1897.832031	-39.482609
2753.436011	17402.345500	1896.849609	153.888275
2753.436011	17402.345500	1895.866211	-63.585674
2753.436011	17402.345500	1894.882813	-18.512533
2753.436011	17402.345500	1893.898438	-58.491734
2753.436011	17402.345500	1892.915039	-64.441162
2753.436011	17402.345500	1891.930664	36.483784
2753.436011	17402.345500	1890.947266	-20.468817
2753.436011	17402.345500	1889.962891	39.142307
2753.436011	17402.345500	1888.977539	-27.494419
2753.436011	17402.345500	1887.993164	-26.147568
2753.436011	17402.345500	1887.007813	-75.757713
2753.436011	17402.345500	1886.023438	25.069635
2753.436011	17402.345500	1885.038086	106.454437
2753.436011	17402.345500	1884.051758	59.272568
2753.436011	17402.345500	1883.066406	87.274925
2753.436011	17402.345500	1882.081055	122.537781
2753.436011	17402.345500	1881.094727	-26.425602
2753.436011	17402.345500	1880.108398	-17.816753
2753.436011	17402.345500	1879.122070	2.899827
2753.436011	17402.345500	1878.135742	-0.620249
2753.436011	17402.345500	1877.148438	-18.675770
2753.436011	17402.345500	1876.162109	64.975868
2753.436011	17402.345500	1875.174805	-88.678772
2753.436011	17402.345500	1874.187500	72.402405
2753.436011	17402.345500	1873.199219	18.017748
2753.436011	17402.345500	1872.211914	16.880108
2753.436011	17402.345500	1871.223633	-102.811142
2753.436011	17402.345500	1870.236328	21.835587
2753.436011	17402.345500	1869.248047	-68.810936
2753.436011	17402.345500	1868.258789	-45.791458
2753.436011	17402.345500	1867.270508	-22.792465
2753.436011	17402.345500	1866.282227	58.194782
2753.436011	17402.345500	1865.292969	-3.439191
2753.436011	17402.345500	1864.303711	70.238899
2753.436011	17402.345500	1863.314453	-13.142726
2753.436011	17402.345500	1862.324219	-33.713112
2753.436011	17402.345500	1861.334961	73.691010
2753.436011	17402.345500	1860.344727	166.552429
2753.436011	17402.345500	1859.354492	179.704910
2753.436011	17402.345500	1858.364258	64.924614
2753.436011	17402.345500	1857.374023	56.338787
2753.436011	17402.345500	1856.383789	98.398911
2753.436011	17402.345500	1855.392578	111.479233
2753.436011	17402.345500	1854.401367	44.951187
2753.436011	17402.345500	1853.410156	7.360973
2753.436011	17402.345500	1852.418945	20.387613
2753.436011	17402.345500	1851.426758	108.102547
2753.436011	17402.345500	1850.435547	46.356480
2753.436011	17402.345500	1849.443359	-27.437525
2753.436011	17402.345500	1848.451172	57.757141
2753.436011	17402.345500	1847.458984	56.191292
2753.436011	17402.345500	1846.466797	-29.678204
2753.436011	17402.345500	1845.473633	24.092531
2753.436011	17402.345500	1844.480469	236.681320
2753.436011	17402.345500	1843.487305	18.381002
2753.436011	17402.345500	1842.494141	11.875008
2753.436011	17402.345500	1841.500977	130.438599
2753.436011	17402.345500	1840.506836	70.938866
2753.436011	17402.345500	1839.513672	37.884842
2753.436011	17402.345500	1838.519531	-64.914940
2753.436011	17402.345500	1837.525391	77.489059
2753.436011	17402.345500	1836.530273	20.320772
2753.436011	17402.345500	1835.536133	66.470352
2753.436011	17402.345500	1834.541016	18.869638
2753.436011	17402.345500	1833.545898	127.386780
2753.436011	17402.345500	1832.550781	94.133499
2753.436011	17402.345500	1831.555664	-15.980608
2753.436011	17402.345500	1830.560547	-32.460999
2753.436011	17402.345500	1829.564453	92.642151
2753.436011	17402.345500	1828.568359	133.667877
2753.436011	17402.345500	1827.572266	13.883717
2753.436011	17402.345500	1826.576172	54.832584
2753.436011	17402.345500	1825.580078	-0.210661
2753.436011	17402.345500	1824.583008	45.442421
2753.436011	17402.345500	1823.585938	7.123772
2753.436011	17402.345500	1822.588867	45.486202
2753.436011	17402.345500	1821.591797	50.240154
2753.436011	17402.345500	1820.594727	-98.405396
2753.436011	17402.345500	1819.596680	-93.711372
2753.436011	17402.345500	1818.599609	100.168297
2753.436011	17402.345500	1817.601563	-120.376678
2753.436011	17402.345500	1816.603516	123.628563
2753.436011	17402.345500	1815.604492	-51.442303
2753.436011	17402.345500	1814.606445	48.760601
2753.436011	17402.345500	1813.607422	19.655001
2753.436011	17402.345500	1812.608398	-19.055050
2753.436011	17402.345500	1811.609375	-9.953462
2753.436011	17402.345500	1810.610352	-53.518669
2753.436011	17402.345500	1809.610352	-51.683338
2753.436011	17402.345500	1808.611328	107.897606
2753.436011	17402.345500	1807.611328	80.923637
2753.436011	17402.345500	1806.611328	-1.055164
2753.436011	17402.345500	1805.610352	88.984924
2753.436011	17402.345500	1804.610352	-19.340115
2753.436011	17402.345500	1803.609375	20.412035
2753.436011	17402.345500	1802.608398	81.592934
2753.436011	17402.345500	1801.607422	137.924927
2753.436011	17402.345500	1800.606445	101.086876
2753.436011	17402.345500	1799.605469	-36.029900
2753.436011	17402.345500	1798.603516	46.387611
2753.436011	17402.345500	1797.601563	61.920250
2753.436011	17402.345500	1796.599609	-49.028446
2753.436011	17402.345500	1795.597656	18.880617
2753.436011	17402.345500	1794.595703	-13.434358
2753.436011	17402.345500	1793.592773	78.174889
2753.436011	17402.345500	1792.589844	21.917435
2753.436011	17402.345500	1791.587891	-5.771370
2753.436011	17402.345500	1790.583984	35.587654
2753.436011	17402.345500	1789.581055	-94.637428
2753.436011	17402.345500	1788.577148	-12.894793
2753.436011	17402.345500	1787.574219	80.672638
2753.436011	17402.345500	1786.570313	-40.128117
2753.436011	17402.345500	1785.566406	-30.015785
2753.436011	17402.345500	1784.561523	110.931450
2753.436011	17402.345500	1783.557617	44.758606
2753.436011	17402.345500	1782.552734	59.439816
2753.436011	17402.345500	1781.547852	126.388924
2753.436011	17402.345500	1780.542969	162.342133
2753.436011	17402.345500	1779.538086	-18.142540
2753.436011	17402.345500	1778.532227	20.087418
2753.436011	17402.345500	1777.527344	46.367264
2753.436011	17402.345500	1776.521484	105.846344
2753.436011	17402.345500	1775.515625	-55.709568
2753.436011	17402.345500	1774.508789	15.527666
2753.436011	17402.345500	1773.502930	-29.687784
2753.436011	17402.345500	1772.496094	-36.953533
2753.436011	17402.345500	1771.489258	43.567730
2753.436011	17402.345500	1770.482422	36.178242
2753.436011	17402.345500	1769.475586	-49.578548
2753.436011	17402.345500	1768.467773	-7.237062
2753.436011	17402.345500	1767.460938	11.314003
2753.436011	17402.345500	1766.453125	6.079488
2753.436011	17402.345500	1765.445313	-39.522839
2753.436011	17402.345500	1764.437500	87.912827
2753.436011	17402.345500	1763.428711	-66.845901
2753.436011	17402.345500	1762.420898	-93.616837
2753.436011	17402.345500	1761.412109	24.104872
2753.436011	17402.345500	1760.403320	4.317386
2753.436011	17402.345500	1759.393555	230.817429
2753.436011	17402.345500	1758.384766	-68.562912
2753.436011	17402.345500	1757.375000	58.306789
2753.436011	17402.345500	1756.366211	-56.388626
2753.436011	17402.345500	1755.356445	-149.799179
2753.436011	17402.345500	1754.345703	-27.891668
2753.436011	17402.345500	1753.335938	4.012718
2753.436011	17402.345500	1752.325195	0.361344
2753.436011	17402.345500	1751.315430	48.692635
2753.436011	17402.345500	1750.304688	18.913229
2753.436011	17402.345500	1749.292969	-18.007595
2753.436011	17402.345500	1748.282227	-43.145828
2753.436011	17402.345500	1747.270508	156.174911
2753.436011	17402.345500	1746.259766	36.391567
2753.436011	17402.345500	1745.248047	72.509918
2753.436011	17402.345500	1744.235352	-7.178456
2753.436011	17402.345500	1743.223633	-37.294392
2753.436011	17402.345500	1742.211914	50.596947
2753.436011	17402.345500	1741.199219	-29.203087
2753.436011	17402.345500	1740.186523	11.339057
2753.436011	17402.345500	1739.173828	6.979510
2753.436011	17402.345500	1738.160156	35.591282
2753.436011	17402.345500	1737.147461	42.916962
2753.436011	17402.345500	1736.133789	24.240335
2753.436011	17402.345500	1735.120117	14.949730
2753.436011	17402.345500	1734.106445	12.683647
2753.436011	17402.345500	1733.091797	-93.345253
2753.436011	17402.345500	1732.078125	90.470383
2753.436011	17402.345500	1731.063477	-53.331688
2753.436011	17402.345500	1730.048828	-6.325755
2753.436011	17402.345500	1729.034180	12.349871
2753.436011	17402.345500	1728.019531	-18.480228
2753.436011	17402.345500	1727.003906	33.044327
2753.436011	17402.345500	1725.988281	89.207375
2753.436011	17402.345500	1724.972656	15.865744
2753.436011	17402.345500	1723.957031	34.266907
2753.436011	17402.345500	1722.941406	-105.001328
2753.436011	17402.345500	1721.924805	-41.998699
2753.436011	17402.345500	1720.909180	-59.014217
2753.436011	17402.345500	1719.892578	1.509958
2753.436011	17402.345500	1718.875977	14.951288
2753.436011	17402.345500	1717.858398	47.136139
2753.436011	17402.345500	1716.841797	135.663055
2753.436011	17402.345500	1715.824219	141.879135
2753.436011	17402.345500	1714.806641	63.488701
2753.436011	17402.345500	1713.789063	41.445328
2753.436011	17402.345500	1712.770508	-60.470188
2753.436011	17402.345500	1711.752930	72.365555
2753.436011	17402.345500	1710.734375	169.894974
2753.436011	17402.345500	1709.715820	51.456917
2753.436011	17402.345500	1708.697266	202.828720
2753.436011	17402.345500	1707.678711	194.593414
2753.436011	17402.345500	1706.659180	92.503265
2753.436011	17402.345500	1705.640625	77.175346
2753.436011	17402.345500	1704.621094	183.712311
2753.436011	17402.345500	1703.600586	119.056953
2753.436011	17402.345500	1702.581055	204.374420
2753.436011	17402.345500	1701.561523	174.813446
2753.436011	17402.345500	1700.541016	238.920547
2753.436011	17402.345500	1699.520508	195.227859
2753.436011	17402.345500	1698.500000	228.789627
2753.436011	17402.345500	1697.478516	154.599121
2753.436011	17402.345500	1696.458008	150.630493
2753.436011	17402.345500	1695.436523	263.635254
2753.436011	17402.345500	1694.415039	175.334183
2753.436011	17402.345500	1693.393555	166.572113
2753.436011	17402.345500	1692.372070	31.476088
2753.436011	17402.345500	1691.349609	141.933243
2753.436011	17402.345500	1690.327148	247.639603
2753.436011	17402.345500	1689.304688	135.875534
2753.436011	17402.345500	1688.282227	264.849182
2753.436011	17402.345500	1687.259766	234.846313
2753.436011	17402.345500	1686.236328	125.384293
2753.436011	17402.345500	1685.213867	186.455551
2753.436011	17402.345500	1684.190430	196.088394
2753.436011	17402.345500	1683.166016	287.402985
2753.436011	17402.345500	1682.142578	138.212692
2753.436011	17402.345500	1681.119141	325.149170
2753.436011	17402.345500	1680.094727	215.616867
2753.436011	17402.345500	1679.070313	241.421036
2753.436011	17402.345500	1678.045898	285.850403
2753.436011	17402.345500	1677.020508	388.535004
2753.436011	17402.345500	1675.996094	430.537964
2753.436011	17402.345500	1674.970703	220.710983
2753.436011	17402.345500	1673.945313	269.667511
2753.436011	17402.345500	1672.919922	255.661133
2753.436011	17402.345500	1671.893555	267.259796
2753.436011	17402.345500	1670.868164	309.124512
2753.436011	17402.345500	1669.841797	418.487610
2753.436011	17402.345500	1668.815430	341.498871
2753.436011	17402.345500	1667.789063	213.300476
2753.436011	17402.345500	1666.761719	320.225006
2753.436011	17402.345500	1665.735352	368.916046
2753.436011	17402.345500	1664.708008	194.188324
2753.436011	17402.345500	1663.680664	366.140411
2753.436011	17402.345500	1662.653320	219.358856
2753.436011	17402.345500	1661.625000	437.709381
2753.436011	17402.345500	1660.597656	293.265900
2753.436011	17402.345500	1659.569336	311.575928
2753.436011	17402.345500	1658.541016	311.272736
2753.436011	17402.345500	1657.512695	341.164642
2753.436011	17402.345500	1656.483398	294.358459
2753.436011	17402.345500	1655.455078	324.218292
2753.436011	17402.345500	1654.425781	289.023041
2753.436011	17402.345500	1653.396484	335.097382
2753.436011	17402.345500	1652.366211	429.886078
2753.436011	17402.345500	1651.336914	366.811310
2753.436011	17402.345500	1650.306641	431.374115
2753.436011	17402.345500	1649.276367	507.504761
2753.436011	17402.345500	1648.246094	323.801056
2753.436011	17402.345500	1647.215820	307.143585
2753.436011	17402.345500	1646.185547	394.830444
2753.436011	17402.345500	1645.154297	463.924469
2753.436011	17402.345500	1644.123047	481.996063
2753.436011	17402.345500	1643.091797	534.817810
2753.436011	17402.345500	1642.060547	376.775787
2753.436011	17402.345500	1641.028320	457.383453
2753.436011	17402.345500	1639.997070	598.184204
2753.436011	17402.345500	1638.964844	639.351379
2753.436011	17402.345500	1637.931641	675.864258
2753.436011	17402.345500	1636.899414	510.994659
2753.436011	17402.345500	1635.867188	741.926086
2753.436011	17402.345500	1634.833984	739.069519
2753.436011	17402.345500	1633.800781	627.489502
2753.436011	17402.345500	1632.767578	599.221375
2753.436011	17402.345500	1631.734375	908.586182
2753.436011	17402.345500	1630.700195	699.940247
2753.436011	17402.345500	1629.666016	646.255310
2753.436011	17402.345500	1628.631836	839.885498
2753.436011	17402.345500	1627.597656	793.140198
2753.436011	17402.345500	1626.563477	968.200745
2753.436011	17402.345500	1625.528320	974.582153
2753.436011	17402.345500	1624.493164	784.679504
2753.436011	17402.345500	1623.458008	641.037903
2753.436011	17402.345500	1622.422852	880.658508
2753.436011	17402.345500	1621.387695	829.395020
2753.436011	17402.345500	1620.351563	794.308533
2753.436011	17402.345500	1619.315430	886.136658
2753.436011	17402.345500	1618.279297	908.744446
2753.436011	17402.345500	1617.243164	832.192566
2753.436011	17402.345500	1616.207031	937.837158
2753.436011	17402.345500	1615.169922	983.511353
2753.436011	17402.345500	1614.132813	1096.024048
2753.436011	17402.345500	1613.095703	837.506653
2753.436011	17402.345500	1612.058594	920.087952
2753.436011	17402.345500	1611.020508	850.618164
2753.436011	17402.345500	1609.983398	857.202332
2753.436011	17402.345500	1608.945313	780.903320
2753.436011	17402.345500	1607.907227	941.773438
2753.436011	17402.345500	1606.868164	826.392578
2753.436011	17402.345500	1605.830078	823.847107
2753.436011	17402.345500	1604.791016	996.176025
2753.436011	17402.345500	1603.751953	982.134216
2753.436011	17402.345500	1602.712891	1053.217529
2753.436011	17402.345500	1601.673828	1041.517334
2753.436011	17402.345500	1600.633789	1085.015503
2753.436011	17402.345500	1599.594727	1066.469116
2753.436011	17402.345500	1598.554688	1073.227783
2753.436011	17402.345500	1597.513672	1047.836304
2753.436011	17402.345500	1596.473633	1013.301514
2753.436011	17402.345500	1595.433594	1102.832153
2753.436011	17402.345500	1594.392578	1013.238586
2753.436011	17402.345500	1593.351563	1024.726929
2753.436011	17402.345500	1592.310547	1036.240723
2753.436011	17402.345500	1591.268555	974.335388
2753.436011	17402.345500	1590.227539	1079.991333
2753.436011	17402.345500	1589.185547	960.814270
2753.436011	17402.345500	1588.143555	977.038635
2753.436011	17402.345500	1587.100586	1146.924072
2753.436011	17402.345500	1586.058594	833.023438
2753.436011	17402.345500	1585.015625	1064.829956
2753.436011	17402.345500	1583.972656	829.052124
2753.436011	17402.345500	1582.929688	955.436951
2753.436011	17402.345500	1581.886719	843.554443
2753.436011	17402.345500	1580.843750	969.960266
