#X		#Y		#Wave		#Intensity
2840.922872	17458.902000	2000.043945	-106.490448
2840.922872	17458.902000	1999.080078	-76.005676
2840.922872	17458.902000	1998.116211	-146.872360
2840.922872	17458.902000	1997.151367	7.196810
2840.922872	17458.902000	1996.186523	68.940788
2840.922872	17458.902000	1995.222656	85.488197
2840.922872	17458.902000	1994.256836	56.909622
2840.922872	17458.902000	1993.291992	218.472031
2840.922872	17458.902000	1992.327148	-56.295307
2840.922872	17458.902000	1991.361328	-17.079548
2840.922872	17458.902000	1990.395508	78.559578
2840.922872	17458.902000	1989.429688	228.134323
2840.922872	17458.902000	1988.463867	174.331360
2840.922872	17458.902000	1987.497070	85.488556
2840.922872	17458.902000	1986.531250	161.952164
2840.922872	17458.902000	1985.564453	116.827675
2840.922872	17458.902000	1984.597656	68.857758
2840.922872	17458.902000	1983.630859	0.757572
2840.922872	17458.902000	1982.664063	144.852280
2840.922872	17458.902000	1981.696289	38.996853
2840.922872	17458.902000	1980.728516	-69.622467
2840.922872	17458.902000	1979.761719	58.587833
2840.922872	17458.902000	1978.792969	-100.008720
2840.922872	17458.902000	1977.825195	39.905891
2840.922872	17458.902000	1976.857422	9.160940
2840.922872	17458.902000	1975.888672	158.326431
2840.922872	17458.902000	1974.919922	181.331787
2840.922872	17458.902000	1973.951172	51.120422
2840.922872	17458.902000	1972.982422	-128.610672
2840.922872	17458.902000	1972.013672	197.078354
2840.922872	17458.902000	1971.043945	-158.119125
2840.922872	17458.902000	1970.075195	-15.392712
2840.922872	17458.902000	1969.105469	67.931534
2840.922872	17458.902000	1968.135742	323.550293
2840.922872	17458.902000	1967.165039	167.421677
2840.922872	17458.902000	1966.195313	13.654398
2840.922872	17458.902000	1965.224609	44.514599
2840.922872	17458.902000	1964.253906	213.121506
2840.922872	17458.902000	1963.283203	159.940857
2840.922872	17458.902000	1962.312500	266.657898
2840.922872	17458.902000	1961.341797	284.612854
2840.922872	17458.902000	1960.370117	-86.349205
2840.922872	17458.902000	1959.399414	-61.170200
2840.922872	17458.902000	1958.427734	-18.882433
2840.922872	17458.902000	1957.455078	266.774017
2840.922872	17458.902000	1956.483398	326.026093
2840.922872	17458.902000	1955.511719	58.205750
2840.922872	17458.902000	1954.539063	53.417915
2840.922872	17458.902000	1953.566406	78.058815
2840.922872	17458.902000	1952.593750	132.119019
2840.922872	17458.902000	1951.621094	21.513649
2840.922872	17458.902000	1950.647461	247.395432
2840.922872	17458.902000	1949.674805	-20.439037
2840.922872	17458.902000	1948.701172	53.066288
2840.922872	17458.902000	1947.727539	82.330193
2840.922872	17458.902000	1946.753906	153.281479
2840.922872	17458.902000	1945.780273	-33.469589
2840.922872	17458.902000	1944.805664	0.637575
2840.922872	17458.902000	1943.831055	100.951782
2840.922872	17458.902000	1942.856445	-4.788331
2840.922872	17458.902000	1941.881836	68.509193
2840.922872	17458.902000	1940.907227	-71.508186
2840.922872	17458.902000	1939.932617	6.682800
2840.922872	17458.902000	1938.957031	57.892693
2840.922872	17458.902000	1937.981445	-128.575607
2840.922872	17458.902000	1937.005859	30.458878
2840.922872	17458.902000	1936.030273	-89.768326
2840.922872	17458.902000	1935.054688	130.460556
2840.922872	17458.902000	1934.078125	118.031578
2840.922872	17458.902000	1933.101563	-14.314724
2840.922872	17458.902000	1932.125000	59.006176
2840.922872	17458.902000	1931.148438	90.732964
2840.922872	17458.902000	1930.171875	56.424511
2840.922872	17458.902000	1929.194336	-65.897934
2840.922872	17458.902000	1928.217773	-63.404518
2840.922872	17458.902000	1927.240234	83.392242
2840.922872	17458.902000	1926.262695	29.707285
2840.922872	17458.902000	1925.284180	110.517593
2840.922872	17458.902000	1924.306641	-38.373234
2840.922872	17458.902000	1923.328125	-108.977837
2840.922872	17458.902000	1922.350586	123.418098
2840.922872	17458.902000	1921.372070	-76.544800
2840.922872	17458.902000	1920.392578	107.010582
2840.922872	17458.902000	1919.414063	-75.682541
2840.922872	17458.902000	1918.434570	-136.204254
2840.922872	17458.902000	1917.456055	-111.224113
2840.922872	17458.902000	1916.476563	-52.041939
2840.922872	17458.902000	1915.497070	138.918747
2840.922872	17458.902000	1914.516602	-38.473145
2840.922872	17458.902000	1913.537109	-32.830364
2840.922872	17458.902000	1912.556641	55.768028
2840.922872	17458.902000	1911.576172	-118.908737
2840.922872	17458.902000	1910.595703	40.467468
2840.922872	17458.902000	1909.615234	82.862389
2840.922872	17458.902000	1908.633789	-45.265419
2840.922872	17458.902000	1907.653320	-200.085556
2840.922872	17458.902000	1906.671875	142.075027
2840.922872	17458.902000	1905.690430	152.974960
2840.922872	17458.902000	1904.708984	-55.201656
2840.922872	17458.902000	1903.727539	55.643261
2840.922872	17458.902000	1902.745117	110.517952
2840.922872	17458.902000	1901.762695	68.088745
2840.922872	17458.902000	1900.780273	-44.828709
2840.922872	17458.902000	1899.797852	-28.733286
2840.922872	17458.902000	1898.815430	-219.315323
2840.922872	17458.902000	1897.832031	-18.300045
2840.922872	17458.902000	1896.849609	-11.798445
2840.922872	17458.902000	1895.866211	87.109039
2840.922872	17458.902000	1894.882813	25.631891
2840.922872	17458.902000	1893.898438	168.317307
2840.922872	17458.902000	1892.915039	-140.851578
2840.922872	17458.902000	1891.930664	-5.389612
2840.922872	17458.902000	1890.947266	1.358929
2840.922872	17458.902000	1889.962891	-62.267231
2840.922872	17458.902000	1888.977539	0.394668
2840.922872	17458.902000	1887.993164	-89.831070
2840.922872	17458.902000	1887.007813	-126.605621
2840.922872	17458.902000	1886.023438	11.346252
2840.922872	17458.902000	1885.038086	47.400551
2840.922872	17458.902000	1884.051758	-100.845627
2840.922872	17458.902000	1883.066406	34.688328
2840.922872	17458.902000	1882.081055	-9.199594
2840.922872	17458.902000	1881.094727	58.448818
2840.922872	17458.902000	1880.108398	-14.460892
2840.922872	17458.902000	1879.122070	-113.973473
2840.922872	17458.902000	1878.135742	94.223717
2840.922872	17458.902000	1877.148438	43.204082
2840.922872	17458.902000	1876.162109	-7.780421
2840.922872	17458.902000	1875.174805	76.850471
2840.922872	17458.902000	1874.187500	-29.770441
2840.922872	17458.902000	1873.199219	-37.114712
2840.922872	17458.902000	1872.211914	11.208073
2840.922872	17458.902000	1871.223633	-100.156372
2840.922872	17458.902000	1870.236328	-51.829422
2840.922872	17458.902000	1869.248047	-51.888027
2840.922872	17458.902000	1868.258789	93.128685
2840.922872	17458.902000	1867.270508	187.322922
2840.922872	17458.902000	1866.282227	177.546249
2840.922872	17458.902000	1865.292969	20.355356
2840.922872	17458.902000	1864.303711	22.679657
2840.922872	17458.902000	1863.314453	167.516098
2840.922872	17458.902000	1862.324219	7.970104
2840.922872	17458.902000	1861.334961	-59.770184
2840.922872	17458.902000	1860.344727	-11.615897
2840.922872	17458.902000	1859.354492	14.777452
2840.922872	17458.902000	1858.364258	31.486847
2840.922872	17458.902000	1857.374023	118.142006
2840.922872	17458.902000	1856.383789	175.790619
2840.922872	17458.902000	1855.392578	153.790863
2840.922872	17458.902000	1854.401367	-0.866219
2840.922872	17458.902000	1853.410156	-8.418102
2840.922872	17458.902000	1852.418945	56.320599
2840.922872	17458.902000	1851.426758	87.253822
2840.922872	17458.902000	1850.435547	-31.266674
2840.922872	17458.902000	1849.443359	105.604233
2840.922872	17458.902000	1848.451172	25.583372
2840.922872	17458.902000	1847.458984	179.163773
2840.922872	17458.902000	1846.466797	0.342355
2840.922872	17458.902000	1845.473633	-168.831635
2840.922872	17458.902000	1844.480469	116.939857
2840.922872	17458.902000	1843.487305	58.407719
2840.922872	17458.902000	1842.494141	-14.594187
2840.922872	17458.902000	1841.500977	114.452606
2840.922872	17458.902000	1840.506836	70.213318
2840.922872	17458.902000	1839.513672	35.549603
2840.922872	17458.902000	1838.519531	-227.577194
2840.922872	17458.902000	1837.525391	134.339447
2840.922872	17458.902000	1836.530273	164.377640
2840.922872	17458.902000	1835.536133	-79.603355
2840.922872	17458.902000	1834.541016	-20.846737
2840.922872	17458.902000	1833.545898	112.278351
2840.922872	17458.902000	1832.550781	36.337368
2840.922872	17458.902000	1831.555664	-63.663780
2840.922872	17458.902000	1830.560547	52.358959
2840.922872	17458.902000	1829.564453	156.251846
2840.922872	17458.902000	1828.568359	48.839558
2840.922872	17458.902000	1827.572266	102.140755
2840.922872	17458.902000	1826.576172	83.366531
2840.922872	17458.902000	1825.580078	95.691833
2840.922872	17458.902000	1824.583008	-38.358665
2840.922872	17458.902000	1823.585938	24.147612
2840.922872	17458.902000	1822.588867	-57.290081
2840.922872	17458.902000	1821.591797	84.096077
2840.922872	17458.902000	1820.594727	45.615936
2840.922872	17458.902000	1819.596680	40.588703
2840.922872	17458.902000	1818.599609	167.206833
2840.922872	17458.902000	1817.601563	56.582062
2840.922872	17458.902000	1816.603516	65.614563
2840.922872	17458.902000	1815.604492	191.836136
2840.922872	17458.902000	1814.606445	30.688192
2840.922872	17458.902000	1813.607422	96.825676
2840.922872	17458.902000	1812.608398	62.338730
2840.922872	17458.902000	1811.609375	-44.010433
2840.922872	17458.902000	1810.610352	45.683975
2840.922872	17458.902000	1809.610352	73.052879
2840.922872	17458.902000	1808.611328	14.230513
2840.922872	17458.902000	1807.611328	22.237883
2840.922872	17458.902000	1806.611328	25.341719
2840.922872	17458.902000	1805.610352	56.991928
2840.922872	17458.902000	1804.610352	-30.935015
2840.922872	17458.902000	1803.609375	-40.137672
2840.922872	17458.902000	1802.608398	108.150276
2840.922872	17458.902000	1801.607422	117.775314
2840.922872	17458.902000	1800.606445	53.266541
2840.922872	17458.902000	1799.605469	74.574013
2840.922872	17458.902000	1798.603516	83.807129
2840.922872	17458.902000	1797.601563	119.149963
2840.922872	17458.902000	1796.599609	-93.729576
2840.922872	17458.902000	1795.597656	-196.957504
2840.922872	17458.902000	1794.595703	45.464218
2840.922872	17458.902000	1793.592773	3.957993
2840.922872	17458.902000	1792.589844	267.423523
2840.922872	17458.902000	1791.587891	115.999290
2840.922872	17458.902000	1790.583984	-64.109749
2840.922872	17458.902000	1789.581055	-20.358257
2840.922872	17458.902000	1788.577148	6.557720
2840.922872	17458.902000	1787.574219	-4.771571
2840.922872	17458.902000	1786.570313	-37.673500
2840.922872	17458.902000	1785.566406	72.117012
2840.922872	17458.902000	1784.561523	136.496048
2840.922872	17458.902000	1783.557617	-61.028931
2840.922872	17458.902000	1782.552734	64.915894
2840.922872	17458.902000	1781.547852	-1.997481
2840.922872	17458.902000	1780.542969	26.092695
2840.922872	17458.902000	1779.538086	-3.038704
2840.922872	17458.902000	1778.532227	41.377773
2840.922872	17458.902000	1777.527344	-49.838005
2840.922872	17458.902000	1776.521484	-0.972888
2840.922872	17458.902000	1775.515625	-33.056007
2840.922872	17458.902000	1774.508789	-74.788078
2840.922872	17458.902000	1773.502930	-130.894852
2840.922872	17458.902000	1772.496094	-25.671999
2840.922872	17458.902000	1771.489258	-167.544449
2840.922872	17458.902000	1770.482422	-31.801495
2840.922872	17458.902000	1769.475586	-124.084953
2840.922872	17458.902000	1768.467773	-199.887222
2840.922872	17458.902000	1767.460938	-147.699753
2840.922872	17458.902000	1766.453125	-102.810921
2840.922872	17458.902000	1765.445313	8.306539
2840.922872	17458.902000	1764.437500	-234.037857
2840.922872	17458.902000	1763.428711	49.789890
2840.922872	17458.902000	1762.420898	-109.825066
2840.922872	17458.902000	1761.412109	-1.783760
2840.922872	17458.902000	1760.403320	6.561120
2840.922872	17458.902000	1759.393555	97.641937
2840.922872	17458.902000	1758.384766	-133.531845
2840.922872	17458.902000	1757.375000	80.357468
2840.922872	17458.902000	1756.366211	-44.502300
2840.922872	17458.902000	1755.356445	-34.568405
2840.922872	17458.902000	1754.345703	95.884560
2840.922872	17458.902000	1753.335938	-41.206566
2840.922872	17458.902000	1752.325195	51.043941
2840.922872	17458.902000	1751.315430	110.008110
2840.922872	17458.902000	1750.304688	-3.831181
2840.922872	17458.902000	1749.292969	-9.039399
2840.922872	17458.902000	1748.282227	-97.115639
2840.922872	17458.902000	1747.270508	-140.419601
2840.922872	17458.902000	1746.259766	-27.899940
2840.922872	17458.902000	1745.248047	1.730597
2840.922872	17458.902000	1744.235352	161.091263
2840.922872	17458.902000	1743.223633	55.772411
2840.922872	17458.902000	1742.211914	-44.933777
2840.922872	17458.902000	1741.199219	-8.851841
2840.922872	17458.902000	1740.186523	-55.535160
2840.922872	17458.902000	1739.173828	-95.269196
2840.922872	17458.902000	1738.160156	-12.470613
2840.922872	17458.902000	1737.147461	77.240822
2840.922872	17458.902000	1736.133789	-191.704361
2840.922872	17458.902000	1735.120117	91.045593
2840.922872	17458.902000	1734.106445	19.931902
2840.922872	17458.902000	1733.091797	106.603767
2840.922872	17458.902000	1732.078125	-4.831517
2840.922872	17458.902000	1731.063477	-5.647741
2840.922872	17458.902000	1730.048828	89.975395
2840.922872	17458.902000	1729.034180	-45.383049
2840.922872	17458.902000	1728.019531	-145.509247
2840.922872	17458.902000	1727.003906	170.950485
2840.922872	17458.902000	1725.988281	65.820953
2840.922872	17458.902000	1724.972656	10.015301
2840.922872	17458.902000	1723.957031	41.151756
2840.922872	17458.902000	1722.941406	-172.512756
2840.922872	17458.902000	1721.924805	70.041939
2840.922872	17458.902000	1720.909180	58.419327
2840.922872	17458.902000	1719.892578	37.249367
2840.922872	17458.902000	1718.875977	-80.420410
2840.922872	17458.902000	1717.858398	-71.281166
2840.922872	17458.902000	1716.841797	95.174957
2840.922872	17458.902000	1715.824219	40.589756
2840.922872	17458.902000	1714.806641	-72.821678
2840.922872	17458.902000	1713.789063	-71.244606
2840.922872	17458.902000	1712.770508	31.152781
2840.922872	17458.902000	1711.752930	39.505577
2840.922872	17458.902000	1710.734375	143.944778
2840.922872	17458.902000	1709.715820	18.257425
2840.922872	17458.902000	1708.697266	-55.886158
2840.922872	17458.902000	1707.678711	-5.797084
2840.922872	17458.902000	1706.659180	46.483852
2840.922872	17458.902000	1705.640625	63.474983
2840.922872	17458.902000	1704.621094	-11.101076
2840.922872	17458.902000	1703.600586	244.710922
2840.922872	17458.902000	1702.581055	101.944656
2840.922872	17458.902000	1701.561523	-127.566788
2840.922872	17458.902000	1700.541016	15.349194
2840.922872	17458.902000	1699.520508	-10.528896
2840.922872	17458.902000	1698.500000	202.347366
2840.922872	17458.902000	1697.478516	91.932564
2840.922872	17458.902000	1696.458008	47.018436
2840.922872	17458.902000	1695.436523	51.147297
2840.922872	17458.902000	1694.415039	-17.358826
2840.922872	17458.902000	1693.393555	187.772202
2840.922872	17458.902000	1692.372070	79.309593
2840.922872	17458.902000	1691.349609	78.346184
2840.922872	17458.902000	1690.327148	203.545227
2840.922872	17458.902000	1689.304688	323.928925
2840.922872	17458.902000	1688.282227	282.914001
2840.922872	17458.902000	1687.259766	202.101791
2840.922872	17458.902000	1686.236328	457.635590
2840.922872	17458.902000	1685.213867	203.800262
2840.922872	17458.902000	1684.190430	80.740074
2840.922872	17458.902000	1683.166016	258.829590
2840.922872	17458.902000	1682.142578	308.395203
2840.922872	17458.902000	1681.119141	453.557678
2840.922872	17458.902000	1680.094727	414.217773
2840.922872	17458.902000	1679.070313	101.844421
2840.922872	17458.902000	1678.045898	377.348572
2840.922872	17458.902000	1677.020508	351.800812
2840.922872	17458.902000	1675.996094	515.085999
2840.922872	17458.902000	1674.970703	330.855957
2840.922872	17458.902000	1673.945313	510.245087
2840.922872	17458.902000	1672.919922	577.641907
2840.922872	17458.902000	1671.893555	542.412720
2840.922872	17458.902000	1670.868164	481.531738
2840.922872	17458.902000	1669.841797	576.643616
2840.922872	17458.902000	1668.815430	455.100708
2840.922872	17458.902000	1667.789063	496.522125
2840.922872	17458.902000	1666.761719	547.164551
2840.922872	17458.902000	1665.735352	488.375732
2840.922872	17458.902000	1664.708008	545.880981
2840.922872	17458.902000	1663.680664	510.262482
2840.922872	17458.902000	1662.653320	562.997681
2840.922872	17458.902000	1661.625000	708.667358
2840.922872	17458.902000	1660.597656	617.107971
2840.922872	17458.902000	1659.569336	537.146057
2840.922872	17458.902000	1658.541016	691.914734
2840.922872	17458.902000	1657.512695	721.109314
2840.922872	17458.902000	1656.483398	638.723511
2840.922872	17458.902000	1655.455078	584.231812
2840.922872	17458.902000	1654.425781	580.801270
2840.922872	17458.902000	1653.396484	825.785950
2840.922872	17458.902000	1652.366211	766.521240
2840.922872	17458.902000	1651.336914	860.462219
2840.922872	17458.902000	1650.306641	798.847229
2840.922872	17458.902000	1649.276367	716.356506
2840.922872	17458.902000	1648.246094	868.161865
2840.922872	17458.902000	1647.215820	1089.467529
2840.922872	17458.902000	1646.185547	988.370056
2840.922872	17458.902000	1645.154297	938.281189
2840.922872	17458.902000	1644.123047	874.294250
2840.922872	17458.902000	1643.091797	1016.571350
2840.922872	17458.902000	1642.060547	896.972900
2840.922872	17458.902000	1641.028320	1034.526611
2840.922872	17458.902000	1639.997070	1172.045288
2840.922872	17458.902000	1638.964844	1163.606934
2840.922872	17458.902000	1637.931641	1254.704712
2840.922872	17458.902000	1636.899414	1308.755737
2840.922872	17458.902000	1635.867188	1300.308228
2840.922872	17458.902000	1634.833984	1032.704712
2840.922872	17458.902000	1633.800781	1200.124268
2840.922872	17458.902000	1632.767578	1328.170654
2840.922872	17458.902000	1631.734375	1574.115967
2840.922872	17458.902000	1630.700195	1535.585205
2840.922872	17458.902000	1629.666016	1598.795410
2840.922872	17458.902000	1628.631836	1368.490723
2840.922872	17458.902000	1627.597656	1508.000366
2840.922872	17458.902000	1626.563477	1534.280273
2840.922872	17458.902000	1625.528320	1445.066528
2840.922872	17458.902000	1624.493164	1924.005005
2840.922872	17458.902000	1623.458008	1777.085938
2840.922872	17458.902000	1622.422852	1884.180298
2840.922872	17458.902000	1621.387695	1910.487427
2840.922872	17458.902000	1620.351563	1959.874268
2840.922872	17458.902000	1619.315430	1670.140747
2840.922872	17458.902000	1618.279297	1768.071167
2840.922872	17458.902000	1617.243164	1967.474731
2840.922872	17458.902000	1616.207031	1897.075317
2840.922872	17458.902000	1615.169922	1879.748901
2840.922872	17458.902000	1614.132813	1874.000244
2840.922872	17458.902000	1613.095703	1893.650513
2840.922872	17458.902000	1612.058594	1871.873413
2840.922872	17458.902000	1611.020508	1889.295288
2840.922872	17458.902000	1609.983398	2091.027588
2840.922872	17458.902000	1608.945313	2050.947998
2840.922872	17458.902000	1607.907227	1693.247314
2840.922872	17458.902000	1606.868164	1733.917603
2840.922872	17458.902000	1605.830078	2009.378906
2840.922872	17458.902000	1604.791016	1916.651367
2840.922872	17458.902000	1603.751953	1690.607056
2840.922872	17458.902000	1602.712891	1915.495728
2840.922872	17458.902000	1601.673828	1963.308594
2840.922872	17458.902000	1600.633789	1877.814209
2840.922872	17458.902000	1599.594727	1803.937622
2840.922872	17458.902000	1598.554688	2001.319946
2840.922872	17458.902000	1597.513672	1716.178711
2840.922872	17458.902000	1596.473633	1768.933228
2840.922872	17458.902000	1595.433594	1700.018799
2840.922872	17458.902000	1594.392578	1925.120605
2840.922872	17458.902000	1593.351563	1594.623535
2840.922872	17458.902000	1592.310547	1909.347656
2840.922872	17458.902000	1591.268555	1721.423462
2840.922872	17458.902000	1590.227539	1932.923096
2840.922872	17458.902000	1589.185547	1814.068970
2840.922872	17458.902000	1588.143555	1959.117676
2840.922872	17458.902000	1587.100586	1831.299561
2840.922872	17458.902000	1586.058594	1944.379395
2840.922872	17458.902000	1585.015625	1860.360596
2840.922872	17458.902000	1583.972656	1891.064575
2840.922872	17458.902000	1582.929688	1981.431396
