#X		#Y		#Wave		#Intensity
2831.041436	17458.902000	2000.043945	77.262962
2831.041436	17458.902000	1999.080078	-27.941162
2831.041436	17458.902000	1998.116211	56.512939
2831.041436	17458.902000	1997.151367	-10.420796
2831.041436	17458.902000	1996.186523	-45.307507
2831.041436	17458.902000	1995.222656	140.108612
2831.041436	17458.902000	1994.256836	35.503204
2831.041436	17458.902000	1993.291992	-39.520287
2831.041436	17458.902000	1992.327148	-0.791115
2831.041436	17458.902000	1991.361328	-19.167162
2831.041436	17458.902000	1990.395508	53.882042
2831.041436	17458.902000	1989.429688	15.403237
2831.041436	17458.902000	1988.463867	8.957696
2831.041436	17458.902000	1987.497070	-108.933609
2831.041436	17458.902000	1986.531250	-140.358383
2831.041436	17458.902000	1985.564453	105.037331
2831.041436	17458.902000	1984.597656	179.635834
2831.041436	17458.902000	1983.630859	68.706337
2831.041436	17458.902000	1982.664063	-104.079185
2831.041436	17458.902000	1981.696289	36.881386
2831.041436	17458.902000	1980.728516	-24.886990
2831.041436	17458.902000	1979.761719	12.058948
2831.041436	17458.902000	1978.792969	130.384567
2831.041436	17458.902000	1977.825195	63.396904
2831.041436	17458.902000	1976.857422	-94.993019
2831.041436	17458.902000	1975.888672	84.712715
2831.041436	17458.902000	1974.919922	-9.636177
2831.041436	17458.902000	1973.951172	-7.812935
2831.041436	17458.902000	1972.982422	67.933029
2831.041436	17458.902000	1972.013672	44.927887
2831.041436	17458.902000	1971.043945	7.065726
2831.041436	17458.902000	1970.075195	30.783092
2831.041436	17458.902000	1969.105469	185.064758
2831.041436	17458.902000	1968.135742	134.682251
2831.041436	17458.902000	1967.165039	131.074966
2831.041436	17458.902000	1966.195313	48.582458
2831.041436	17458.902000	1965.224609	-31.469515
2831.041436	17458.902000	1964.253906	-99.228935
2831.041436	17458.902000	1963.283203	57.041264
2831.041436	17458.902000	1962.312500	-45.264721
2831.041436	17458.902000	1961.341797	71.470879
2831.041436	17458.902000	1960.370117	-11.196730
2831.041436	17458.902000	1959.399414	-7.760868
2831.041436	17458.902000	1958.427734	71.892609
2831.041436	17458.902000	1957.455078	-13.294703
2831.041436	17458.902000	1956.483398	41.677021
2831.041436	17458.902000	1955.511719	17.928982
2831.041436	17458.902000	1954.539063	35.947910
2831.041436	17458.902000	1953.566406	-110.719208
2831.041436	17458.902000	1952.593750	76.807457
2831.041436	17458.902000	1951.621094	55.430603
2831.041436	17458.902000	1950.647461	-96.134857
2831.041436	17458.902000	1949.674805	-75.761772
2831.041436	17458.902000	1948.701172	116.453850
2831.041436	17458.902000	1947.727539	-0.720074
2831.041436	17458.902000	1946.753906	9.761927
2831.041436	17458.902000	1945.780273	74.213318
2831.041436	17458.902000	1944.805664	65.027771
2831.041436	17458.902000	1943.831055	-113.418564
2831.041436	17458.902000	1942.856445	80.975700
2831.041436	17458.902000	1941.881836	-4.243290
2831.041436	17458.902000	1940.907227	-18.338997
2831.041436	17458.902000	1939.932617	-115.772209
2831.041436	17458.902000	1938.957031	2.486606
2831.041436	17458.902000	1937.981445	12.889497
2831.041436	17458.902000	1937.005859	-96.751045
2831.041436	17458.902000	1936.030273	11.637677
2831.041436	17458.902000	1935.054688	-58.779400
2831.041436	17458.902000	1934.078125	-53.268875
2831.041436	17458.902000	1933.101563	25.679640
2831.041436	17458.902000	1932.125000	65.442368
2831.041436	17458.902000	1931.148438	-19.604511
2831.041436	17458.902000	1930.171875	61.751553
2831.041436	17458.902000	1929.194336	13.437115
2831.041436	17458.902000	1928.217773	28.734612
2831.041436	17458.902000	1927.240234	107.607315
2831.041436	17458.902000	1926.262695	51.995464
2831.041436	17458.902000	1925.284180	-76.918175
2831.041436	17458.902000	1924.306641	116.811211
2831.041436	17458.902000	1923.328125	36.816231
2831.041436	17458.902000	1922.350586	-126.199623
2831.041436	17458.902000	1921.372070	-25.359636
2831.041436	17458.902000	1920.392578	99.870140
2831.041436	17458.902000	1919.414063	-33.742012
2831.041436	17458.902000	1918.434570	74.372940
2831.041436	17458.902000	1917.456055	-12.794664
2831.041436	17458.902000	1916.476563	163.620071
2831.041436	17458.902000	1915.497070	37.450954
2831.041436	17458.902000	1914.516602	-8.166430
2831.041436	17458.902000	1913.537109	-48.879158
2831.041436	17458.902000	1912.556641	149.392960
2831.041436	17458.902000	1911.576172	84.304840
2831.041436	17458.902000	1910.595703	-9.999066
2831.041436	17458.902000	1909.615234	24.903004
2831.041436	17458.902000	1908.633789	8.632863
2831.041436	17458.902000	1907.653320	136.107590
2831.041436	17458.902000	1906.671875	-45.783585
2831.041436	17458.902000	1905.690430	37.837162
2831.041436	17458.902000	1904.708984	16.741571
2831.041436	17458.902000	1903.727539	12.701345
2831.041436	17458.902000	1902.745117	6.236141
2831.041436	17458.902000	1901.762695	-136.487762
2831.041436	17458.902000	1900.780273	29.829107
2831.041436	17458.902000	1899.797852	-76.345352
2831.041436	17458.902000	1898.815430	41.270710
2831.041436	17458.902000	1897.832031	0.797462
2831.041436	17458.902000	1896.849609	35.709171
2831.041436	17458.902000	1895.866211	82.765587
2831.041436	17458.902000	1894.882813	-18.432152
2831.041436	17458.902000	1893.898438	18.906475
2831.041436	17458.902000	1892.915039	53.805912
2831.041436	17458.902000	1891.930664	-1.171880
2831.041436	17458.902000	1890.947266	113.860283
2831.041436	17458.902000	1889.962891	-62.499035
2831.041436	17458.902000	1888.977539	-3.327543
2831.041436	17458.902000	1887.993164	80.093430
2831.041436	17458.902000	1887.007813	124.657822
2831.041436	17458.902000	1886.023438	-34.586143
2831.041436	17458.902000	1885.038086	-96.746017
2831.041436	17458.902000	1884.051758	90.909981
2831.041436	17458.902000	1883.066406	-17.323868
2831.041436	17458.902000	1882.081055	53.876492
2831.041436	17458.902000	1881.094727	-170.660522
2831.041436	17458.902000	1880.108398	-26.764679
2831.041436	17458.902000	1879.122070	-35.571445
2831.041436	17458.902000	1878.135742	-153.391571
2831.041436	17458.902000	1877.148438	24.311304
2831.041436	17458.902000	1876.162109	66.333397
2831.041436	17458.902000	1875.174805	62.330647
2831.041436	17458.902000	1874.187500	-26.401268
2831.041436	17458.902000	1873.199219	-73.967155
2831.041436	17458.902000	1872.211914	30.919453
2831.041436	17458.902000	1871.223633	26.887548
2831.041436	17458.902000	1870.236328	-37.624516
2831.041436	17458.902000	1869.248047	-27.155775
2831.041436	17458.902000	1868.258789	-74.734879
2831.041436	17458.902000	1867.270508	-20.775465
2831.041436	17458.902000	1866.282227	57.319221
2831.041436	17458.902000	1865.292969	9.706918
2831.041436	17458.902000	1864.303711	27.331297
2831.041436	17458.902000	1863.314453	-20.291357
2831.041436	17458.902000	1862.324219	-14.779735
2831.041436	17458.902000	1861.334961	92.131386
2831.041436	17458.902000	1860.344727	-13.476240
2831.041436	17458.902000	1859.354492	83.698051
2831.041436	17458.902000	1858.364258	81.865845
2831.041436	17458.902000	1857.374023	-81.654823
2831.041436	17458.902000	1856.383789	10.586399
2831.041436	17458.902000	1855.392578	-20.245167
2831.041436	17458.902000	1854.401367	9.200071
2831.041436	17458.902000	1853.410156	-36.136326
2831.041436	17458.902000	1852.418945	0.480657
2831.041436	17458.902000	1851.426758	63.568298
2831.041436	17458.902000	1850.435547	13.346395
2831.041436	17458.902000	1849.443359	93.216499
2831.041436	17458.902000	1848.451172	18.859898
2831.041436	17458.902000	1847.458984	4.710825
2831.041436	17458.902000	1846.466797	86.853920
2831.041436	17458.902000	1845.473633	43.742809
2831.041436	17458.902000	1844.480469	7.835753
2831.041436	17458.902000	1843.487305	8.007429
2831.041436	17458.902000	1842.494141	63.486034
2831.041436	17458.902000	1841.500977	-92.792709
2831.041436	17458.902000	1840.506836	8.310225
2831.041436	17458.902000	1839.513672	118.958694
2831.041436	17458.902000	1838.519531	116.522339
2831.041436	17458.902000	1837.525391	118.855659
2831.041436	17458.902000	1836.530273	-107.178322
2831.041436	17458.902000	1835.536133	169.055740
2831.041436	17458.902000	1834.541016	77.557114
2831.041436	17458.902000	1833.545898	48.504662
2831.041436	17458.902000	1832.550781	62.649586
2831.041436	17458.902000	1831.555664	28.722084
2831.041436	17458.902000	1830.560547	174.816620
2831.041436	17458.902000	1829.564453	42.378967
2831.041436	17458.902000	1828.568359	-56.457653
2831.041436	17458.902000	1827.572266	-59.329231
2831.041436	17458.902000	1826.576172	-83.837563
2831.041436	17458.902000	1825.580078	64.304230
2831.041436	17458.902000	1824.583008	-46.644810
2831.041436	17458.902000	1823.585938	27.009354
2831.041436	17458.902000	1822.588867	-52.829197
2831.041436	17458.902000	1821.591797	-3.269547
2831.041436	17458.902000	1820.594727	-35.251347
2831.041436	17458.902000	1819.596680	-96.024551
2831.041436	17458.902000	1818.599609	135.399414
2831.041436	17458.902000	1817.601563	81.694115
2831.041436	17458.902000	1816.603516	-43.877159
2831.041436	17458.902000	1815.604492	60.358799
2831.041436	17458.902000	1814.606445	207.584854
2831.041436	17458.902000	1813.607422	60.352608
2831.041436	17458.902000	1812.608398	61.459282
2831.041436	17458.902000	1811.609375	-11.648951
2831.041436	17458.902000	1810.610352	-44.129917
2831.041436	17458.902000	1809.610352	-88.616348
2831.041436	17458.902000	1808.611328	-25.558455
2831.041436	17458.902000	1807.611328	-74.933067
2831.041436	17458.902000	1806.611328	95.517860
2831.041436	17458.902000	1805.610352	86.633583
2831.041436	17458.902000	1804.610352	118.305687
2831.041436	17458.902000	1803.609375	102.129189
2831.041436	17458.902000	1802.608398	90.671974
2831.041436	17458.902000	1801.607422	-23.512260
2831.041436	17458.902000	1800.606445	177.386536
2831.041436	17458.902000	1799.605469	22.525589
2831.041436	17458.902000	1798.603516	-46.440781
2831.041436	17458.902000	1797.601563	-165.549316
2831.041436	17458.902000	1796.599609	-12.749178
2831.041436	17458.902000	1795.597656	-151.031555
2831.041436	17458.902000	1794.595703	-19.886614
2831.041436	17458.902000	1793.592773	-15.214995
2831.041436	17458.902000	1792.589844	146.700363
2831.041436	17458.902000	1791.587891	74.945923
2831.041436	17458.902000	1790.583984	77.003372
2831.041436	17458.902000	1789.581055	-6.765007
2831.041436	17458.902000	1788.577148	88.054863
2831.041436	17458.902000	1787.574219	-5.349638
2831.041436	17458.902000	1786.570313	94.053986
2831.041436	17458.902000	1785.566406	83.850517
2831.041436	17458.902000	1784.561523	40.255524
2831.041436	17458.902000	1783.557617	53.716740
2831.041436	17458.902000	1782.552734	98.023483
2831.041436	17458.902000	1781.547852	58.990353
2831.041436	17458.902000	1780.542969	-39.554314
2831.041436	17458.902000	1779.538086	-116.736267
2831.041436	17458.902000	1778.532227	-91.747017
2831.041436	17458.902000	1777.527344	-92.980698
2831.041436	17458.902000	1776.521484	22.146654
2831.041436	17458.902000	1775.515625	-26.779373
2831.041436	17458.902000	1774.508789	-54.388515
2831.041436	17458.902000	1773.502930	-179.430740
2831.041436	17458.902000	1772.496094	-86.050148
2831.041436	17458.902000	1771.489258	71.319176
2831.041436	17458.902000	1770.482422	-11.182302
2831.041436	17458.902000	1769.475586	8.317350
2831.041436	17458.902000	1768.467773	-109.889595
2831.041436	17458.902000	1767.460938	58.921944
2831.041436	17458.902000	1766.453125	-2.478847
2831.041436	17458.902000	1765.445313	73.605782
2831.041436	17458.902000	1764.437500	-96.990265
2831.041436	17458.902000	1763.428711	-23.446201
2831.041436	17458.902000	1762.420898	-16.361858
2831.041436	17458.902000	1761.412109	92.527885
2831.041436	17458.902000	1760.403320	-163.544144
2831.041436	17458.902000	1759.393555	42.287037
2831.041436	17458.902000	1758.384766	-12.534809
2831.041436	17458.902000	1757.375000	-12.960912
2831.041436	17458.902000	1756.366211	10.215015
2831.041436	17458.902000	1755.356445	120.872040
2831.041436	17458.902000	1754.345703	68.120834
2831.041436	17458.902000	1753.335938	15.318537
2831.041436	17458.902000	1752.325195	-80.126389
2831.041436	17458.902000	1751.315430	-54.988316
2831.041436	17458.902000	1750.304688	-29.944017
2831.041436	17458.902000	1749.292969	-0.265089
2831.041436	17458.902000	1748.282227	-20.305515
2831.041436	17458.902000	1747.270508	70.650116
2831.041436	17458.902000	1746.259766	109.519623
2831.041436	17458.902000	1745.248047	115.216873
2831.041436	17458.902000	1744.235352	40.523079
2831.041436	17458.902000	1743.223633	-74.356384
2831.041436	17458.902000	1742.211914	13.777616
2831.041436	17458.902000	1741.199219	33.337322
2831.041436	17458.902000	1740.186523	69.334587
2831.041436	17458.902000	1739.173828	67.486916
2831.041436	17458.902000	1738.160156	-2.860516
2831.041436	17458.902000	1737.147461	91.863335
2831.041436	17458.902000	1736.133789	26.102913
2831.041436	17458.902000	1735.120117	-68.001579
2831.041436	17458.902000	1734.106445	24.088711
2831.041436	17458.902000	1733.091797	137.273346
2831.041436	17458.902000	1732.078125	-63.066788
2831.041436	17458.902000	1731.063477	118.267487
2831.041436	17458.902000	1730.048828	68.609161
2831.041436	17458.902000	1729.034180	11.830629
2831.041436	17458.902000	1728.019531	58.606560
2831.041436	17458.902000	1727.003906	86.448967
2831.041436	17458.902000	1725.988281	-85.864998
2831.041436	17458.902000	1724.972656	-91.098640
2831.041436	17458.902000	1723.957031	-6.992284
2831.041436	17458.902000	1722.941406	-148.825317
2831.041436	17458.902000	1721.924805	55.059013
2831.041436	17458.902000	1720.909180	-28.085714
2831.041436	17458.902000	1719.892578	-38.394676
2831.041436	17458.902000	1718.875977	190.995743
2831.041436	17458.902000	1717.858398	-139.128021
2831.041436	17458.902000	1716.841797	73.605835
2831.041436	17458.902000	1715.824219	119.379524
2831.041436	17458.902000	1714.806641	21.786955
2831.041436	17458.902000	1713.789063	-26.520506
2831.041436	17458.902000	1712.770508	-107.758156
2831.041436	17458.902000	1711.752930	97.371773
2831.041436	17458.902000	1710.734375	-2.769369
2831.041436	17458.902000	1709.715820	-159.257751
2831.041436	17458.902000	1708.697266	-13.098673
2831.041436	17458.902000	1707.678711	25.036524
2831.041436	17458.902000	1706.659180	39.629513
2831.041436	17458.902000	1705.640625	115.126778
2831.041436	17458.902000	1704.621094	75.648293
2831.041436	17458.902000	1703.600586	-31.861685
2831.041436	17458.902000	1702.581055	97.304939
2831.041436	17458.902000	1701.561523	-40.742802
2831.041436	17458.902000	1700.541016	62.473553
2831.041436	17458.902000	1699.520508	36.773056
2831.041436	17458.902000	1698.500000	118.737877
2831.041436	17458.902000	1697.478516	195.918106
2831.041436	17458.902000	1696.458008	139.596786
2831.041436	17458.902000	1695.436523	55.144405
2831.041436	17458.902000	1694.415039	15.123021
2831.041436	17458.902000	1693.393555	59.277931
2831.041436	17458.902000	1692.372070	86.985786
2831.041436	17458.902000	1691.349609	95.908241
2831.041436	17458.902000	1690.327148	128.152023
2831.041436	17458.902000	1689.304688	281.883331
2831.041436	17458.902000	1688.282227	384.083862
2831.041436	17458.902000	1687.259766	289.908142
2831.041436	17458.902000	1686.236328	335.880371
2831.041436	17458.902000	1685.213867	328.068970
2831.041436	17458.902000	1684.190430	271.155975
2831.041436	17458.902000	1683.166016	274.910980
2831.041436	17458.902000	1682.142578	217.928604
2831.041436	17458.902000	1681.119141	277.619202
2831.041436	17458.902000	1680.094727	470.239777
2831.041436	17458.902000	1679.070313	455.090942
2831.041436	17458.902000	1678.045898	523.876648
2831.041436	17458.902000	1677.020508	711.520691
2831.041436	17458.902000	1675.996094	521.312439
2831.041436	17458.902000	1674.970703	533.945068
2831.041436	17458.902000	1673.945313	656.079285
2831.041436	17458.902000	1672.919922	533.429199
2831.041436	17458.902000	1671.893555	597.169556
2831.041436	17458.902000	1670.868164	579.321594
2831.041436	17458.902000	1669.841797	766.385681
2831.041436	17458.902000	1668.815430	541.171631
2831.041436	17458.902000	1667.789063	702.481079
2831.041436	17458.902000	1666.761719	602.973511
2831.041436	17458.902000	1665.735352	654.750000
2831.041436	17458.902000	1664.708008	606.404419
2831.041436	17458.902000	1663.680664	574.326416
2831.041436	17458.902000	1662.653320	551.528625
2831.041436	17458.902000	1661.625000	500.787384
2831.041436	17458.902000	1660.597656	526.769714
2831.041436	17458.902000	1659.569336	673.574524
2831.041436	17458.902000	1658.541016	485.617035
2831.041436	17458.902000	1657.512695	562.599792
2831.041436	17458.902000	1656.483398	562.844543
2831.041436	17458.902000	1655.455078	511.969696
2831.041436	17458.902000	1654.425781	581.835632
2831.041436	17458.902000	1653.396484	649.324585
2831.041436	17458.902000	1652.366211	721.391907
2831.041436	17458.902000	1651.336914	858.403870
2831.041436	17458.902000	1650.306641	763.273376
2831.041436	17458.902000	1649.276367	793.439392
2831.041436	17458.902000	1648.246094	686.712402
2831.041436	17458.902000	1647.215820	686.686523
2831.041436	17458.902000	1646.185547	726.057556
2831.041436	17458.902000	1645.154297	674.967834
2831.041436	17458.902000	1644.123047	816.258789
2831.041436	17458.902000	1643.091797	846.240906
2831.041436	17458.902000	1642.060547	813.636841
2831.041436	17458.902000	1641.028320	743.952576
2831.041436	17458.902000	1639.997070	753.036255
2831.041436	17458.902000	1638.964844	903.340454
2831.041436	17458.902000	1637.931641	1035.038940
2831.041436	17458.902000	1636.899414	1000.027771
2831.041436	17458.902000	1635.867188	946.503296
2831.041436	17458.902000	1634.833984	1223.849121
2831.041436	17458.902000	1633.800781	1172.581055
2831.041436	17458.902000	1632.767578	1209.214233
2831.041436	17458.902000	1631.734375	1352.196899
2831.041436	17458.902000	1630.700195	1409.560913
2831.041436	17458.902000	1629.666016	1372.121948
2831.041436	17458.902000	1628.631836	1378.602783
2831.041436	17458.902000	1627.597656	1331.931885
2831.041436	17458.902000	1626.563477	1507.053589
2831.041436	17458.902000	1625.528320	1739.837036
2831.041436	17458.902000	1624.493164	1480.645386
2831.041436	17458.902000	1623.458008	1681.016968
2831.041436	17458.902000	1622.422852	1558.132446
2831.041436	17458.902000	1621.387695	1765.335327
2831.041436	17458.902000	1620.351563	1434.798340
2831.041436	17458.902000	1619.315430	1540.425903
2831.041436	17458.902000	1618.279297	1802.866699
2831.041436	17458.902000	1617.243164	1818.450562
2831.041436	17458.902000	1616.207031	1776.391357
2831.041436	17458.902000	1615.169922	1662.879395
2831.041436	17458.902000	1614.132813	1772.987061
2831.041436	17458.902000	1613.095703	1811.624634
2831.041436	17458.902000	1612.058594	1889.423706
2831.041436	17458.902000	1611.020508	1981.012085
2831.041436	17458.902000	1609.983398	2125.557129
2831.041436	17458.902000	1608.945313	1933.871216
2831.041436	17458.902000	1607.907227	1887.306641
2831.041436	17458.902000	1606.868164	1831.556885
2831.041436	17458.902000	1605.830078	1764.349487
2831.041436	17458.902000	1604.791016	2113.614258
2831.041436	17458.902000	1603.751953	2032.597900
2831.041436	17458.902000	1602.712891	2105.722656
2831.041436	17458.902000	1601.673828	1994.884521
2831.041436	17458.902000	1600.633789	1854.210938
2831.041436	17458.902000	1599.594727	1600.996460
2831.041436	17458.902000	1598.554688	1906.327148
2831.041436	17458.902000	1597.513672	1919.749023
2831.041436	17458.902000	1596.473633	1887.257690
2831.041436	17458.902000	1595.433594	1914.519409
2831.041436	17458.902000	1594.392578	2031.339966
2831.041436	17458.902000	1593.351563	1927.740723
2831.041436	17458.902000	1592.310547	1975.705688
2831.041436	17458.902000	1591.268555	2108.583252
2831.041436	17458.902000	1590.227539	1828.438599
2831.041436	17458.902000	1589.185547	1894.824585
2831.041436	17458.902000	1588.143555	2043.786377
2831.041436	17458.902000	1587.100586	1984.033569
2831.041436	17458.902000	1586.058594	1979.373657
2831.041436	17458.902000	1585.015625	1915.139771
2831.041436	17458.902000	1583.972656	2116.816406
2831.041436	17458.902000	1582.929688	1988.494507
2831.041436	17458.902000	1581.886719	1931.277466
