#X		#Y		#Wave		#Intensity
2750.302872	17405.038667	2000.043945	-29.333305
2750.302872	17405.038667	1999.080078	-16.346949
2750.302872	17405.038667	1998.116211	-19.919182
2750.302872	17405.038667	1997.151367	50.742355
2750.302872	17405.038667	1996.186523	138.608673
2750.302872	17405.038667	1995.222656	-9.005095
2750.302872	17405.038667	1994.256836	-8.058624
2750.302872	17405.038667	1993.291992	-46.838764
2750.302872	17405.038667	1992.327148	60.373070
2750.302872	17405.038667	1991.361328	-89.991127
2750.302872	17405.038667	1990.395508	170.446198
2750.302872	17405.038667	1989.429688	27.356918
2750.302872	17405.038667	1988.463867	96.997818
2750.302872	17405.038667	1987.497070	84.902832
2750.302872	17405.038667	1986.531250	164.233078
2750.302872	17405.038667	1985.564453	132.186249
2750.302872	17405.038667	1984.597656	40.741676
2750.302872	17405.038667	1983.630859	-92.762115
2750.302872	17405.038667	1982.664063	70.262367
2750.302872	17405.038667	1981.696289	-65.808945
2750.302872	17405.038667	1980.728516	30.315872
2750.302872	17405.038667	1979.761719	69.530533
2750.302872	17405.038667	1978.792969	-9.862025
2750.302872	17405.038667	1977.825195	-76.941399
2750.302872	17405.038667	1976.857422	48.489246
2750.302872	17405.038667	1975.888672	-102.604034
2750.302872	17405.038667	1974.919922	-46.417500
2750.302872	17405.038667	1973.951172	-22.375841
2750.302872	17405.038667	1972.982422	75.605972
2750.302872	17405.038667	1972.013672	62.524055
2750.302872	17405.038667	1971.043945	19.811754
2750.302872	17405.038667	1970.075195	68.287735
2750.302872	17405.038667	1969.105469	-6.539809
2750.302872	17405.038667	1968.135742	24.587957
2750.302872	17405.038667	1967.165039	-33.035610
2750.302872	17405.038667	1966.195313	59.596775
2750.302872	17405.038667	1965.224609	56.101208
2750.302872	17405.038667	1964.253906	-63.168766
2750.302872	17405.038667	1963.283203	-91.328773
2750.302872	17405.038667	1962.312500	-97.353859
2750.302872	17405.038667	1961.341797	46.725224
2750.302872	17405.038667	1960.370117	50.461060
2750.302872	17405.038667	1959.399414	22.184341
2750.302872	17405.038667	1958.427734	-79.902664
2750.302872	17405.038667	1957.455078	-66.384659
2750.302872	17405.038667	1956.483398	-45.518818
2750.302872	17405.038667	1955.511719	31.861462
2750.302872	17405.038667	1954.539063	-84.989471
2750.302872	17405.038667	1953.566406	-219.018509
2750.302872	17405.038667	1952.593750	35.201756
2750.302872	17405.038667	1951.621094	168.934586
2750.302872	17405.038667	1950.647461	39.793011
2750.302872	17405.038667	1949.674805	183.266937
2750.302872	17405.038667	1948.701172	-12.152124
2750.302872	17405.038667	1947.727539	148.433090
2750.302872	17405.038667	1946.753906	-24.842760
2750.302872	17405.038667	1945.780273	74.313194
2750.302872	17405.038667	1944.805664	43.390144
2750.302872	17405.038667	1943.831055	24.733498
2750.302872	17405.038667	1942.856445	-45.429432
2750.302872	17405.038667	1941.881836	-54.272717
2750.302872	17405.038667	1940.907227	15.329327
2750.302872	17405.038667	1939.932617	278.538483
2750.302872	17405.038667	1938.957031	73.561516
2750.302872	17405.038667	1937.981445	101.427246
2750.302872	17405.038667	1937.005859	48.434101
2750.302872	17405.038667	1936.030273	137.515244
2750.302872	17405.038667	1935.054688	96.768822
2750.302872	17405.038667	1934.078125	-125.147423
2750.302872	17405.038667	1933.101563	-134.014328
2750.302872	17405.038667	1932.125000	94.524956
2750.302872	17405.038667	1931.148438	63.590961
2750.302872	17405.038667	1930.171875	27.772911
2750.302872	17405.038667	1929.194336	23.764507
2750.302872	17405.038667	1928.217773	-19.374390
2750.302872	17405.038667	1927.240234	-84.505783
2750.302872	17405.038667	1926.262695	-68.937035
2750.302872	17405.038667	1925.284180	12.620169
2750.302872	17405.038667	1924.306641	96.589859
2750.302872	17405.038667	1923.328125	63.244686
2750.302872	17405.038667	1922.350586	-21.389809
2750.302872	17405.038667	1921.372070	57.652340
2750.302872	17405.038667	1920.392578	-41.603367
2750.302872	17405.038667	1919.414063	12.996472
2750.302872	17405.038667	1918.434570	48.046658
2750.302872	17405.038667	1917.456055	17.185898
2750.302872	17405.038667	1916.476563	-3.902185
2750.302872	17405.038667	1915.497070	-27.422670
2750.302872	17405.038667	1914.516602	141.768951
2750.302872	17405.038667	1913.537109	137.740036
2750.302872	17405.038667	1912.556641	-95.494850
2750.302872	17405.038667	1911.576172	68.737076
2750.302872	17405.038667	1910.595703	220.720871
2750.302872	17405.038667	1909.615234	-0.215466
2750.302872	17405.038667	1908.633789	-18.836712
2750.302872	17405.038667	1907.653320	38.067905
2750.302872	17405.038667	1906.671875	70.592949
2750.302872	17405.038667	1905.690430	49.531181
2750.302872	17405.038667	1904.708984	-3.176187
2750.302872	17405.038667	1903.727539	-97.248138
2750.302872	17405.038667	1902.745117	-45.257175
2750.302872	17405.038667	1901.762695	35.911667
2750.302872	17405.038667	1900.780273	-11.896173
2750.302872	17405.038667	1899.797852	-137.527664
2750.302872	17405.038667	1898.815430	106.549103
2750.302872	17405.038667	1897.832031	-43.380051
2750.302872	17405.038667	1896.849609	86.319321
2750.302872	17405.038667	1895.866211	87.141960
2750.302872	17405.038667	1894.882813	63.657825
2750.302872	17405.038667	1893.898438	183.531555
2750.302872	17405.038667	1892.915039	184.321426
2750.302872	17405.038667	1891.930664	211.821884
2750.302872	17405.038667	1890.947266	130.029663
2750.302872	17405.038667	1889.962891	-7.581137
2750.302872	17405.038667	1888.977539	-67.468979
2750.302872	17405.038667	1887.993164	-107.924232
2750.302872	17405.038667	1887.007813	-87.710175
2750.302872	17405.038667	1886.023438	36.811535
2750.302872	17405.038667	1885.038086	30.292608
2750.302872	17405.038667	1884.051758	1.939561
2750.302872	17405.038667	1883.066406	-77.331902
2750.302872	17405.038667	1882.081055	107.663177
2750.302872	17405.038667	1881.094727	45.347000
2750.302872	17405.038667	1880.108398	-48.460537
2750.302872	17405.038667	1879.122070	12.821085
2750.302872	17405.038667	1878.135742	35.308514
2750.302872	17405.038667	1877.148438	45.664108
2750.302872	17405.038667	1876.162109	152.865189
2750.302872	17405.038667	1875.174805	-18.416311
2750.302872	17405.038667	1874.187500	-5.677874
2750.302872	17405.038667	1873.199219	-111.550186
2750.302872	17405.038667	1872.211914	-69.794128
2750.302872	17405.038667	1871.223633	-132.100220
2750.302872	17405.038667	1870.236328	-3.311316
2750.302872	17405.038667	1869.248047	-70.477402
2750.302872	17405.038667	1868.258789	-28.830578
2750.302872	17405.038667	1867.270508	150.577393
2750.302872	17405.038667	1866.282227	196.962418
2750.302872	17405.038667	1865.292969	-73.260521
2750.302872	17405.038667	1864.303711	-169.443253
2750.302872	17405.038667	1863.314453	-62.695786
2750.302872	17405.038667	1862.324219	167.164398
2750.302872	17405.038667	1861.334961	-25.666201
2750.302872	17405.038667	1860.344727	22.981787
2750.302872	17405.038667	1859.354492	141.589600
2750.302872	17405.038667	1858.364258	129.804031
2750.302872	17405.038667	1857.374023	-34.018120
2750.302872	17405.038667	1856.383789	94.105881
2750.302872	17405.038667	1855.392578	14.719698
2750.302872	17405.038667	1854.401367	-59.840832
2750.302872	17405.038667	1853.410156	157.344528
2750.302872	17405.038667	1852.418945	24.870838
2750.302872	17405.038667	1851.426758	-6.353140
2750.302872	17405.038667	1850.435547	46.746590
2750.302872	17405.038667	1849.443359	63.655209
2750.302872	17405.038667	1848.451172	99.796593
2750.302872	17405.038667	1847.458984	-25.472488
2750.302872	17405.038667	1846.466797	65.989876
2750.302872	17405.038667	1845.473633	27.377438
2750.302872	17405.038667	1844.480469	200.566345
2750.302872	17405.038667	1843.487305	135.400681
2750.302872	17405.038667	1842.494141	65.411987
2750.302872	17405.038667	1841.500977	31.499035
2750.302872	17405.038667	1840.506836	100.985283
2750.302872	17405.038667	1839.513672	-12.355341
2750.302872	17405.038667	1838.519531	186.870804
2750.302872	17405.038667	1837.525391	111.940498
2750.302872	17405.038667	1836.530273	99.486633
2750.302872	17405.038667	1835.536133	274.429932
2750.302872	17405.038667	1834.541016	48.042648
2750.302872	17405.038667	1833.545898	179.607574
2750.302872	17405.038667	1832.550781	133.361389
2750.302872	17405.038667	1831.555664	67.879631
2750.302872	17405.038667	1830.560547	108.009315
2750.302872	17405.038667	1829.564453	188.883057
2750.302872	17405.038667	1828.568359	212.085648
2750.302872	17405.038667	1827.572266	220.837189
2750.302872	17405.038667	1826.576172	116.790337
2750.302872	17405.038667	1825.580078	0.743344
2750.302872	17405.038667	1824.583008	9.387201
2750.302872	17405.038667	1823.585938	39.555962
2750.302872	17405.038667	1822.588867	21.722654
2750.302872	17405.038667	1821.591797	66.160118
2750.302872	17405.038667	1820.594727	55.416595
2750.302872	17405.038667	1819.596680	265.033447
2750.302872	17405.038667	1818.599609	211.039429
2750.302872	17405.038667	1817.601563	-139.949005
2750.302872	17405.038667	1816.603516	181.965103
2750.302872	17405.038667	1815.604492	115.884460
2750.302872	17405.038667	1814.606445	-148.882492
2750.302872	17405.038667	1813.607422	86.538170
2750.302872	17405.038667	1812.608398	-17.932964
2750.302872	17405.038667	1811.609375	-93.713432
2750.302872	17405.038667	1810.610352	-45.156311
2750.302872	17405.038667	1809.610352	53.540054
2750.302872	17405.038667	1808.611328	140.189667
2750.302872	17405.038667	1807.611328	23.569162
2750.302872	17405.038667	1806.611328	165.038940
2750.302872	17405.038667	1805.610352	117.629959
2750.302872	17405.038667	1804.610352	-149.603104
2750.302872	17405.038667	1803.609375	41.795696
2750.302872	17405.038667	1802.608398	-134.698761
2750.302872	17405.038667	1801.607422	-10.350611
2750.302872	17405.038667	1800.606445	51.824043
2750.302872	17405.038667	1799.605469	51.856976
2750.302872	17405.038667	1798.603516	-217.821808
2750.302872	17405.038667	1797.601563	120.917206
2750.302872	17405.038667	1796.599609	80.193710
2750.302872	17405.038667	1795.597656	17.957470
2750.302872	17405.038667	1794.595703	129.744186
2750.302872	17405.038667	1793.592773	-27.971462
2750.302872	17405.038667	1792.589844	19.290962
2750.302872	17405.038667	1791.587891	-24.083532
2750.302872	17405.038667	1790.583984	101.651787
2750.302872	17405.038667	1789.581055	29.554104
2750.302872	17405.038667	1788.577148	174.150894
2750.302872	17405.038667	1787.574219	40.017586
2750.302872	17405.038667	1786.570313	-29.853733
2750.302872	17405.038667	1785.566406	-4.551456
2750.302872	17405.038667	1784.561523	-29.311378
2750.302872	17405.038667	1783.557617	86.262810
2750.302872	17405.038667	1782.552734	-36.183987
2750.302872	17405.038667	1781.547852	-15.940052
2750.302872	17405.038667	1780.542969	-29.068186
2750.302872	17405.038667	1779.538086	-66.038406
2750.302872	17405.038667	1778.532227	-205.290955
2750.302872	17405.038667	1777.527344	-2.302688
2750.302872	17405.038667	1776.521484	155.383057
2750.302872	17405.038667	1775.515625	-7.806727
2750.302872	17405.038667	1774.508789	-52.241203
2750.302872	17405.038667	1773.502930	114.646301
2750.302872	17405.038667	1772.496094	-136.523010
2750.302872	17405.038667	1771.489258	132.251434
2750.302872	17405.038667	1770.482422	-50.138012
2750.302872	17405.038667	1769.475586	-75.902466
2750.302872	17405.038667	1768.467773	59.608051
2750.302872	17405.038667	1767.460938	26.567568
2750.302872	17405.038667	1766.453125	-58.719906
2750.302872	17405.038667	1765.445313	-108.479889
2750.302872	17405.038667	1764.437500	50.345089
2750.302872	17405.038667	1763.428711	-63.573799
2750.302872	17405.038667	1762.420898	-61.388939
2750.302872	17405.038667	1761.412109	82.887619
2750.302872	17405.038667	1760.403320	35.136204
2750.302872	17405.038667	1759.393555	-17.416574
2750.302872	17405.038667	1758.384766	-46.336567
2750.302872	17405.038667	1757.375000	-148.728149
2750.302872	17405.038667	1756.366211	108.679077
2750.302872	17405.038667	1755.356445	-164.269333
2750.302872	17405.038667	1754.345703	-15.975989
2750.302872	17405.038667	1753.335938	129.825089
2750.302872	17405.038667	1752.325195	-43.855904
2750.302872	17405.038667	1751.315430	-63.812260
2750.302872	17405.038667	1750.304688	95.865364
2750.302872	17405.038667	1749.292969	-37.754875
2750.302872	17405.038667	1748.282227	-195.033188
2750.302872	17405.038667	1747.270508	63.599510
2750.302872	17405.038667	1746.259766	14.897584
2750.302872	17405.038667	1745.248047	58.262878
2750.302872	17405.038667	1744.235352	-7.119209
2750.302872	17405.038667	1743.223633	-96.160873
2750.302872	17405.038667	1742.211914	95.714249
2750.302872	17405.038667	1741.199219	86.784401
2750.302872	17405.038667	1740.186523	-44.942474
2750.302872	17405.038667	1739.173828	54.548378
2750.302872	17405.038667	1738.160156	38.318222
2750.302872	17405.038667	1737.147461	12.588595
2750.302872	17405.038667	1736.133789	-34.438080
2750.302872	17405.038667	1735.120117	-76.809113
2750.302872	17405.038667	1734.106445	-114.524338
2750.302872	17405.038667	1733.091797	-15.605811
2750.302872	17405.038667	1732.078125	-15.766783
2750.302872	17405.038667	1731.063477	28.754093
2750.302872	17405.038667	1730.048828	106.160881
2750.302872	17405.038667	1729.034180	11.535830
2750.302872	17405.038667	1728.019531	39.316662
2750.302872	17405.038667	1727.003906	-13.041485
2750.302872	17405.038667	1725.988281	21.636478
2750.302872	17405.038667	1724.972656	-148.515411
2750.302872	17405.038667	1723.957031	116.609581
2750.302872	17405.038667	1722.941406	71.036118
2750.302872	17405.038667	1721.924805	-47.514343
2750.302872	17405.038667	1720.909180	116.100082
2750.302872	17405.038667	1719.892578	-66.041313
2750.302872	17405.038667	1718.875977	29.190228
2750.302872	17405.038667	1717.858398	11.493464
2750.302872	17405.038667	1716.841797	106.528427
2750.302872	17405.038667	1715.824219	-24.087988
2750.302872	17405.038667	1714.806641	-107.749191
2750.302872	17405.038667	1713.789063	5.814724
2750.302872	17405.038667	1712.770508	48.816887
2750.302872	17405.038667	1711.752930	171.554749
2750.302872	17405.038667	1710.734375	89.972733
2750.302872	17405.038667	1709.715820	118.640686
2750.302872	17405.038667	1708.697266	-101.463425
2750.302872	17405.038667	1707.678711	103.017258
2750.302872	17405.038667	1706.659180	75.161774
2750.302872	17405.038667	1705.640625	44.912910
2750.302872	17405.038667	1704.621094	157.602081
2750.302872	17405.038667	1703.600586	-97.821236
2750.302872	17405.038667	1702.581055	26.433832
2750.302872	17405.038667	1701.561523	-90.755920
2750.302872	17405.038667	1700.541016	66.101311
2750.302872	17405.038667	1699.520508	26.095642
2750.302872	17405.038667	1698.500000	185.079132
2750.302872	17405.038667	1697.478516	51.275875
2750.302872	17405.038667	1696.458008	153.884705
2750.302872	17405.038667	1695.436523	69.155968
2750.302872	17405.038667	1694.415039	209.020920
2750.302872	17405.038667	1693.393555	224.779938
2750.302872	17405.038667	1692.372070	238.130844
2750.302872	17405.038667	1691.349609	221.003464
2750.302872	17405.038667	1690.327148	143.030533
2750.302872	17405.038667	1689.304688	268.398163
2750.302872	17405.038667	1688.282227	213.694839
2750.302872	17405.038667	1687.259766	254.757111
2750.302872	17405.038667	1686.236328	279.379822
2750.302872	17405.038667	1685.213867	194.161591
2750.302872	17405.038667	1684.190430	337.770569
2750.302872	17405.038667	1683.166016	336.492371
2750.302872	17405.038667	1682.142578	267.467957
2750.302872	17405.038667	1681.119141	205.414948
2750.302872	17405.038667	1680.094727	516.688477
2750.302872	17405.038667	1679.070313	291.171021
2750.302872	17405.038667	1678.045898	380.594604
2750.302872	17405.038667	1677.020508	297.334808
2750.302872	17405.038667	1675.996094	211.731430
2750.302872	17405.038667	1674.970703	541.070984
2750.302872	17405.038667	1673.945313	450.676514
2750.302872	17405.038667	1672.919922	304.333954
2750.302872	17405.038667	1671.893555	404.962555
2750.302872	17405.038667	1670.868164	556.762024
2750.302872	17405.038667	1669.841797	748.035950
2750.302872	17405.038667	1668.815430	547.978882
2750.302872	17405.038667	1667.789063	634.316162
2750.302872	17405.038667	1666.761719	648.401428
2750.302872	17405.038667	1665.735352	676.409424
2750.302872	17405.038667	1664.708008	688.060425
2750.302872	17405.038667	1663.680664	783.411438
2750.302872	17405.038667	1662.653320	801.925232
2750.302872	17405.038667	1661.625000	813.399597
2750.302872	17405.038667	1660.597656	813.213745
2750.302872	17405.038667	1659.569336	764.157043
2750.302872	17405.038667	1658.541016	773.180176
2750.302872	17405.038667	1657.512695	965.730347
2750.302872	17405.038667	1656.483398	956.032898
2750.302872	17405.038667	1655.455078	988.121826
2750.302872	17405.038667	1654.425781	829.716797
2750.302872	17405.038667	1653.396484	891.913208
2750.302872	17405.038667	1652.366211	1044.573242
2750.302872	17405.038667	1651.336914	1074.138184
2750.302872	17405.038667	1650.306641	1152.374512
2750.302872	17405.038667	1649.276367	1209.665771
2750.302872	17405.038667	1648.246094	1065.094116
2750.302872	17405.038667	1647.215820	971.566345
2750.302872	17405.038667	1646.185547	1096.004517
2750.302872	17405.038667	1645.154297	1387.267334
2750.302872	17405.038667	1644.123047	1379.386475
2750.302872	17405.038667	1643.091797	1415.509155
2750.302872	17405.038667	1642.060547	1453.906860
2750.302872	17405.038667	1641.028320	1253.651245
2750.302872	17405.038667	1639.997070	1248.005737
2750.302872	17405.038667	1638.964844	1328.001831
2750.302872	17405.038667	1637.931641	1428.765137
2750.302872	17405.038667	1636.899414	1332.728271
2750.302872	17405.038667	1635.867188	1472.758911
2750.302872	17405.038667	1634.833984	1457.675659
2750.302872	17405.038667	1633.800781	1340.790649
2750.302872	17405.038667	1632.767578	1381.206299
2750.302872	17405.038667	1631.734375	1451.649048
2750.302872	17405.038667	1630.700195	1515.096924
2750.302872	17405.038667	1629.666016	1532.271973
2750.302872	17405.038667	1628.631836	1681.155762
2750.302872	17405.038667	1627.597656	1626.628052
2750.302872	17405.038667	1626.563477	1535.143799
2750.302872	17405.038667	1625.528320	1704.670410
2750.302872	17405.038667	1624.493164	1624.713989
2750.302872	17405.038667	1623.458008	1653.291260
2750.302872	17405.038667	1622.422852	1813.426636
2750.302872	17405.038667	1621.387695	1943.485352
2750.302872	17405.038667	1620.351563	1893.485229
2750.302872	17405.038667	1619.315430	1797.355713
2750.302872	17405.038667	1618.279297	1632.057617
2750.302872	17405.038667	1617.243164	1695.128052
2750.302872	17405.038667	1616.207031	1608.296509
2750.302872	17405.038667	1615.169922	1618.302612
2750.302872	17405.038667	1614.132813	1812.687012
2750.302872	17405.038667	1613.095703	1723.556274
2750.302872	17405.038667	1612.058594	1892.496094
2750.302872	17405.038667	1611.020508	1812.583252
2750.302872	17405.038667	1609.983398	1638.290405
2750.302872	17405.038667	1608.945313	1873.912476
2750.302872	17405.038667	1607.907227	1842.398193
2750.302872	17405.038667	1606.868164	1705.009766
2750.302872	17405.038667	1605.830078	1719.573486
2750.302872	17405.038667	1604.791016	2063.135254
2750.302872	17405.038667	1603.751953	1877.493164
2750.302872	17405.038667	1602.712891	1938.018555
2750.302872	17405.038667	1601.673828	1835.268066
2750.302872	17405.038667	1600.633789	2199.249023
2750.302872	17405.038667	1599.594727	2080.417480
2750.302872	17405.038667	1598.554688	2145.477783
2750.302872	17405.038667	1597.513672	2375.943359
2750.302872	17405.038667	1596.473633	2146.905762
2750.302872	17405.038667	1595.433594	2310.715820
2750.302872	17405.038667	1594.392578	2375.723145
2750.302872	17405.038667	1593.351563	2624.389160
2750.302872	17405.038667	1592.310547	2306.012207
2750.302872	17405.038667	1591.268555	2141.526855
2750.302872	17405.038667	1590.227539	2089.568115
2750.302872	17405.038667	1589.185547	2186.751221
2750.302872	17405.038667	1588.143555	2297.678223
2750.302872	17405.038667	1587.100586	2222.827637
2750.302872	17405.038667	1586.058594	2161.797119
2750.302872	17405.038667	1585.015625	2201.662842
2750.302872	17405.038667	1583.972656	2099.445313
2750.302872	17405.038667	1582.929688	2146.232666
