#X		#Y		#Wave		#Intensity
2707.643989	17475.550667	2000.043945	-73.627602
2707.643989	17475.550667	1999.080078	-172.973068
2707.643989	17475.550667	1998.116211	45.656506
2707.643989	17475.550667	1997.151367	-142.743088
2707.643989	17475.550667	1996.186523	-29.313618
2707.643989	17475.550667	1995.222656	110.814682
2707.643989	17475.550667	1994.256836	91.906265
2707.643989	17475.550667	1993.291992	-21.569538
2707.643989	17475.550667	1992.327148	65.087242
2707.643989	17475.550667	1991.361328	57.216957
2707.643989	17475.550667	1990.395508	-151.539963
2707.643989	17475.550667	1989.429688	-9.247885
2707.643989	17475.550667	1988.463867	-189.022293
2707.643989	17475.550667	1987.497070	189.923447
2707.643989	17475.550667	1986.531250	81.163971
2707.643989	17475.550667	1985.564453	-107.022766
2707.643989	17475.550667	1984.597656	-11.171659
2707.643989	17475.550667	1983.630859	15.115816
2707.643989	17475.550667	1982.664063	33.675346
2707.643989	17475.550667	1981.696289	210.069016
2707.643989	17475.550667	1980.728516	99.553078
2707.643989	17475.550667	1979.761719	233.329880
2707.643989	17475.550667	1978.792969	87.756195
2707.643989	17475.550667	1977.825195	65.440811
2707.643989	17475.550667	1976.857422	116.955513
2707.643989	17475.550667	1975.888672	136.146240
2707.643989	17475.550667	1974.919922	-170.605896
2707.643989	17475.550667	1973.951172	144.276291
2707.643989	17475.550667	1972.982422	-98.618546
2707.643989	17475.550667	1972.013672	215.762787
2707.643989	17475.550667	1971.043945	505.199493
2707.643989	17475.550667	1970.075195	91.756409
2707.643989	17475.550667	1969.105469	-53.016773
2707.643989	17475.550667	1968.135742	70.741005
2707.643989	17475.550667	1967.165039	216.492889
2707.643989	17475.550667	1966.195313	219.186707
2707.643989	17475.550667	1965.224609	248.856369
2707.643989	17475.550667	1964.253906	118.337135
2707.643989	17475.550667	1963.283203	108.412361
2707.643989	17475.550667	1962.312500	327.330017
2707.643989	17475.550667	1961.341797	196.593674
2707.643989	17475.550667	1960.370117	73.207100
2707.643989	17475.550667	1959.399414	-160.915359
2707.643989	17475.550667	1958.427734	104.327614
2707.643989	17475.550667	1957.455078	184.960022
2707.643989	17475.550667	1956.483398	137.649841
2707.643989	17475.550667	1955.511719	188.649612
2707.643989	17475.550667	1954.539063	207.635315
2707.643989	17475.550667	1953.566406	-48.662857
2707.643989	17475.550667	1952.593750	-44.444435
2707.643989	17475.550667	1951.621094	58.014687
2707.643989	17475.550667	1950.647461	189.889587
2707.643989	17475.550667	1949.674805	-98.219109
2707.643989	17475.550667	1948.701172	60.623081
2707.643989	17475.550667	1947.727539	-163.544128
2707.643989	17475.550667	1946.753906	383.035614
2707.643989	17475.550667	1945.780273	259.507172
2707.643989	17475.550667	1944.805664	57.522995
2707.643989	17475.550667	1943.831055	69.034241
2707.643989	17475.550667	1942.856445	-7.730797
2707.643989	17475.550667	1941.881836	52.868111
2707.643989	17475.550667	1940.907227	47.273762
2707.643989	17475.550667	1939.932617	323.590912
2707.643989	17475.550667	1938.957031	-29.993658
2707.643989	17475.550667	1937.981445	202.192734
2707.643989	17475.550667	1937.005859	-50.728081
2707.643989	17475.550667	1936.030273	-4.698850
2707.643989	17475.550667	1935.054688	251.954697
2707.643989	17475.550667	1934.078125	160.881699
2707.643989	17475.550667	1933.101563	35.615192
2707.643989	17475.550667	1932.125000	162.534103
2707.643989	17475.550667	1931.148438	34.964497
2707.643989	17475.550667	1930.171875	-163.459152
2707.643989	17475.550667	1929.194336	12.499734
2707.643989	17475.550667	1928.217773	102.849144
2707.643989	17475.550667	1927.240234	232.343689
2707.643989	17475.550667	1926.262695	70.917442
2707.643989	17475.550667	1925.284180	163.816483
2707.643989	17475.550667	1924.306641	-163.600601
2707.643989	17475.550667	1923.328125	29.604338
2707.643989	17475.550667	1922.350586	-141.198868
2707.643989	17475.550667	1921.372070	22.738503
2707.643989	17475.550667	1920.392578	54.807693
2707.643989	17475.550667	1919.414063	-25.385841
2707.643989	17475.550667	1918.434570	-90.841400
2707.643989	17475.550667	1917.456055	-7.330949
2707.643989	17475.550667	1916.476563	-323.982666
2707.643989	17475.550667	1915.497070	162.219666
2707.643989	17475.550667	1914.516602	-44.453079
2707.643989	17475.550667	1913.537109	-150.996429
2707.643989	17475.550667	1912.556641	-37.985695
2707.643989	17475.550667	1911.576172	18.971611
2707.643989	17475.550667	1910.595703	195.402267
2707.643989	17475.550667	1909.615234	159.809540
2707.643989	17475.550667	1908.633789	-255.815170
2707.643989	17475.550667	1907.653320	-140.158112
2707.643989	17475.550667	1906.671875	-287.536591
2707.643989	17475.550667	1905.690430	-127.969154
2707.643989	17475.550667	1904.708984	-29.273281
2707.643989	17475.550667	1903.727539	74.307701
2707.643989	17475.550667	1902.745117	204.673279
2707.643989	17475.550667	1901.762695	-95.662422
2707.643989	17475.550667	1900.780273	154.002350
2707.643989	17475.550667	1899.797852	-73.140465
2707.643989	17475.550667	1898.815430	-210.164642
2707.643989	17475.550667	1897.832031	71.133888
2707.643989	17475.550667	1896.849609	109.262199
2707.643989	17475.550667	1895.866211	237.352570
2707.643989	17475.550667	1894.882813	71.383156
2707.643989	17475.550667	1893.898438	-14.303376
2707.643989	17475.550667	1892.915039	-39.188812
2707.643989	17475.550667	1891.930664	193.427567
2707.643989	17475.550667	1890.947266	49.591095
2707.643989	17475.550667	1889.962891	51.516178
2707.643989	17475.550667	1888.977539	4.921548
2707.643989	17475.550667	1887.993164	135.541626
2707.643989	17475.550667	1887.007813	18.629942
2707.643989	17475.550667	1886.023438	71.612122
2707.643989	17475.550667	1885.038086	-86.434067
2707.643989	17475.550667	1884.051758	51.469597
2707.643989	17475.550667	1883.066406	-222.866730
2707.643989	17475.550667	1882.081055	135.649277
2707.643989	17475.550667	1881.094727	195.914703
2707.643989	17475.550667	1880.108398	-172.773132
2707.643989	17475.550667	1879.122070	-160.916718
2707.643989	17475.550667	1878.135742	-175.708023
2707.643989	17475.550667	1877.148438	284.222534
2707.643989	17475.550667	1876.162109	95.001183
2707.643989	17475.550667	1875.174805	-203.101135
2707.643989	17475.550667	1874.187500	43.548626
2707.643989	17475.550667	1873.199219	-89.875374
2707.643989	17475.550667	1872.211914	120.342812
2707.643989	17475.550667	1871.223633	-88.067009
2707.643989	17475.550667	1870.236328	-100.494331
2707.643989	17475.550667	1869.248047	24.913593
2707.643989	17475.550667	1868.258789	92.222305
2707.643989	17475.550667	1867.270508	48.274773
2707.643989	17475.550667	1866.282227	18.819164
2707.643989	17475.550667	1865.292969	-78.322250
2707.643989	17475.550667	1864.303711	54.071396
2707.643989	17475.550667	1863.314453	77.673042
2707.643989	17475.550667	1862.324219	161.607544
2707.643989	17475.550667	1861.334961	226.147858
2707.643989	17475.550667	1860.344727	-177.754318
2707.643989	17475.550667	1859.354492	2.596606
2707.643989	17475.550667	1858.364258	-193.659668
2707.643989	17475.550667	1857.374023	-8.652972
2707.643989	17475.550667	1856.383789	12.178246
2707.643989	17475.550667	1855.392578	218.667419
2707.643989	17475.550667	1854.401367	15.049425
2707.643989	17475.550667	1853.410156	264.731537
2707.643989	17475.550667	1852.418945	155.060425
2707.643989	17475.550667	1851.426758	202.023575
2707.643989	17475.550667	1850.435547	207.928329
2707.643989	17475.550667	1849.443359	459.502411
2707.643989	17475.550667	1848.451172	217.084641
2707.643989	17475.550667	1847.458984	56.558811
2707.643989	17475.550667	1846.466797	-36.570122
2707.643989	17475.550667	1845.473633	-117.715561
2707.643989	17475.550667	1844.480469	157.319046
2707.643989	17475.550667	1843.487305	-8.252378
2707.643989	17475.550667	1842.494141	194.282181
2707.643989	17475.550667	1841.500977	341.306610
2707.643989	17475.550667	1840.506836	-53.008980
2707.643989	17475.550667	1839.513672	38.484642
2707.643989	17475.550667	1838.519531	69.724243
2707.643989	17475.550667	1837.525391	151.321182
2707.643989	17475.550667	1836.530273	86.160049
2707.643989	17475.550667	1835.536133	174.697601
2707.643989	17475.550667	1834.541016	315.936218
2707.643989	17475.550667	1833.545898	48.641998
2707.643989	17475.550667	1832.550781	290.466583
2707.643989	17475.550667	1831.555664	368.790039
2707.643989	17475.550667	1830.560547	180.471085
2707.643989	17475.550667	1829.564453	80.895493
2707.643989	17475.550667	1828.568359	312.394562
2707.643989	17475.550667	1827.572266	363.711823
2707.643989	17475.550667	1826.576172	107.807503
2707.643989	17475.550667	1825.580078	139.667374
2707.643989	17475.550667	1824.583008	209.731323
2707.643989	17475.550667	1823.585938	-3.293559
2707.643989	17475.550667	1822.588867	16.127337
2707.643989	17475.550667	1821.591797	193.559891
2707.643989	17475.550667	1820.594727	-5.433864
2707.643989	17475.550667	1819.596680	-53.586555
2707.643989	17475.550667	1818.599609	209.506912
2707.643989	17475.550667	1817.601563	91.549667
2707.643989	17475.550667	1816.603516	26.144543
2707.643989	17475.550667	1815.604492	144.921677
2707.643989	17475.550667	1814.606445	184.498505
2707.643989	17475.550667	1813.607422	238.237106
2707.643989	17475.550667	1812.608398	45.340687
2707.643989	17475.550667	1811.609375	74.805115
2707.643989	17475.550667	1810.610352	15.581346
2707.643989	17475.550667	1809.610352	188.138489
2707.643989	17475.550667	1808.611328	238.518127
2707.643989	17475.550667	1807.611328	248.049149
2707.643989	17475.550667	1806.611328	90.092278
2707.643989	17475.550667	1805.610352	216.334747
2707.643989	17475.550667	1804.610352	335.171295
2707.643989	17475.550667	1803.609375	-64.549034
2707.643989	17475.550667	1802.608398	-103.722496
2707.643989	17475.550667	1801.607422	12.111944
2707.643989	17475.550667	1800.606445	492.930969
2707.643989	17475.550667	1799.605469	42.547237
2707.643989	17475.550667	1798.603516	307.994537
2707.643989	17475.550667	1797.601563	184.244934
2707.643989	17475.550667	1796.599609	446.755768
2707.643989	17475.550667	1795.597656	243.898392
2707.643989	17475.550667	1794.595703	-199.928406
2707.643989	17475.550667	1793.592773	-26.357700
2707.643989	17475.550667	1792.589844	223.200989
2707.643989	17475.550667	1791.587891	-54.209827
2707.643989	17475.550667	1790.583984	380.653259
2707.643989	17475.550667	1789.581055	214.823242
2707.643989	17475.550667	1788.577148	234.596741
2707.643989	17475.550667	1787.574219	313.676788
2707.643989	17475.550667	1786.570313	159.167816
2707.643989	17475.550667	1785.566406	213.958908
2707.643989	17475.550667	1784.561523	13.835311
2707.643989	17475.550667	1783.557617	108.621094
2707.643989	17475.550667	1782.552734	10.422992
2707.643989	17475.550667	1781.547852	118.963165
2707.643989	17475.550667	1780.542969	-17.722353
2707.643989	17475.550667	1779.538086	-23.822100
2707.643989	17475.550667	1778.532227	43.524223
2707.643989	17475.550667	1777.527344	36.934635
2707.643989	17475.550667	1776.521484	-10.303014
2707.643989	17475.550667	1775.515625	96.667854
2707.643989	17475.550667	1774.508789	103.572014
2707.643989	17475.550667	1773.502930	219.490417
2707.643989	17475.550667	1772.496094	149.894791
2707.643989	17475.550667	1771.489258	8.855664
2707.643989	17475.550667	1770.482422	247.401672
2707.643989	17475.550667	1769.475586	-119.549843
2707.643989	17475.550667	1768.467773	-35.808475
2707.643989	17475.550667	1767.460938	31.061337
2707.643989	17475.550667	1766.453125	294.499451
2707.643989	17475.550667	1765.445313	-42.367229
2707.643989	17475.550667	1764.437500	-298.748138
2707.643989	17475.550667	1763.428711	189.026642
2707.643989	17475.550667	1762.420898	43.586647
2707.643989	17475.550667	1761.412109	262.844177
2707.643989	17475.550667	1760.403320	55.324017
2707.643989	17475.550667	1759.393555	-88.433655
2707.643989	17475.550667	1758.384766	-5.025726
2707.643989	17475.550667	1757.375000	42.561878
2707.643989	17475.550667	1756.366211	288.746948
2707.643989	17475.550667	1755.356445	-113.953369
2707.643989	17475.550667	1754.345703	27.499228
2707.643989	17475.550667	1753.335938	206.516296
2707.643989	17475.550667	1752.325195	285.840210
2707.643989	17475.550667	1751.315430	452.401093
2707.643989	17475.550667	1750.304688	195.362366
2707.643989	17475.550667	1749.292969	23.254719
2707.643989	17475.550667	1748.282227	108.619255
2707.643989	17475.550667	1747.270508	4.616080
2707.643989	17475.550667	1746.259766	4.379120
2707.643989	17475.550667	1745.248047	22.766817
2707.643989	17475.550667	1744.235352	326.661652
2707.643989	17475.550667	1743.223633	122.492119
2707.643989	17475.550667	1742.211914	163.690262
2707.643989	17475.550667	1741.199219	232.925568
2707.643989	17475.550667	1740.186523	61.148289
2707.643989	17475.550667	1739.173828	198.298492
2707.643989	17475.550667	1738.160156	99.199333
2707.643989	17475.550667	1737.147461	-148.694199
2707.643989	17475.550667	1736.133789	-26.513922
2707.643989	17475.550667	1735.120117	-39.028866
2707.643989	17475.550667	1734.106445	33.076206
2707.643989	17475.550667	1733.091797	-206.237839
2707.643989	17475.550667	1732.078125	53.890808
2707.643989	17475.550667	1731.063477	45.056732
2707.643989	17475.550667	1730.048828	-25.265579
2707.643989	17475.550667	1729.034180	99.667053
2707.643989	17475.550667	1728.019531	-67.677567
2707.643989	17475.550667	1727.003906	44.927887
2707.643989	17475.550667	1725.988281	-266.439484
2707.643989	17475.550667	1724.972656	-121.382019
2707.643989	17475.550667	1723.957031	-26.033363
2707.643989	17475.550667	1722.941406	33.748337
2707.643989	17475.550667	1721.924805	-14.949213
2707.643989	17475.550667	1720.909180	-343.676788
2707.643989	17475.550667	1719.892578	-70.662727
2707.643989	17475.550667	1718.875977	-75.367126
2707.643989	17475.550667	1717.858398	23.078257
2707.643989	17475.550667	1716.841797	86.028801
2707.643989	17475.550667	1715.824219	233.270248
2707.643989	17475.550667	1714.806641	-26.129177
2707.643989	17475.550667	1713.789063	191.064484
2707.643989	17475.550667	1712.770508	-244.810730
2707.643989	17475.550667	1711.752930	77.522812
2707.643989	17475.550667	1710.734375	-1.867901
2707.643989	17475.550667	1709.715820	-165.932938
2707.643989	17475.550667	1708.697266	54.610649
2707.643989	17475.550667	1707.678711	-62.932682
2707.643989	17475.550667	1706.659180	-86.870415
2707.643989	17475.550667	1705.640625	-96.922302
2707.643989	17475.550667	1704.621094	-72.048965
2707.643989	17475.550667	1703.600586	130.705948
2707.643989	17475.550667	1702.581055	84.789978
2707.643989	17475.550667	1701.561523	230.807510
2707.643989	17475.550667	1700.541016	-28.733509
2707.643989	17475.550667	1699.520508	269.037537
2707.643989	17475.550667	1698.500000	140.306229
2707.643989	17475.550667	1697.478516	304.041016
2707.643989	17475.550667	1696.458008	179.625488
2707.643989	17475.550667	1695.436523	80.769691
2707.643989	17475.550667	1694.415039	136.183212
2707.643989	17475.550667	1693.393555	308.348694
2707.643989	17475.550667	1692.372070	396.051514
2707.643989	17475.550667	1691.349609	200.536575
2707.643989	17475.550667	1690.327148	259.752533
2707.643989	17475.550667	1689.304688	314.082550
2707.643989	17475.550667	1688.282227	312.114838
2707.643989	17475.550667	1687.259766	543.631042
2707.643989	17475.550667	1686.236328	253.861679
2707.643989	17475.550667	1685.213867	650.780334
2707.643989	17475.550667	1684.190430	671.345642
2707.643989	17475.550667	1683.166016	558.606384
2707.643989	17475.550667	1682.142578	585.836060
2707.643989	17475.550667	1681.119141	820.610657
2707.643989	17475.550667	1680.094727	611.718567
2707.643989	17475.550667	1679.070313	477.399597
2707.643989	17475.550667	1678.045898	559.906311
2707.643989	17475.550667	1677.020508	870.743530
2707.643989	17475.550667	1675.996094	1029.770508
2707.643989	17475.550667	1674.970703	1078.974731
2707.643989	17475.550667	1673.945313	769.053772
2707.643989	17475.550667	1672.919922	957.809265
2707.643989	17475.550667	1671.893555	1132.331299
2707.643989	17475.550667	1670.868164	896.677979
2707.643989	17475.550667	1669.841797	928.780762
2707.643989	17475.550667	1668.815430	986.345886
2707.643989	17475.550667	1667.789063	796.964050
2707.643989	17475.550667	1666.761719	1133.551147
2707.643989	17475.550667	1665.735352	1018.418457
2707.643989	17475.550667	1664.708008	1177.730835
2707.643989	17475.550667	1663.680664	1353.138428
2707.643989	17475.550667	1662.653320	1442.294556
2707.643989	17475.550667	1661.625000	1289.411743
2707.643989	17475.550667	1660.597656	1627.083374
2707.643989	17475.550667	1659.569336	1043.942139
2707.643989	17475.550667	1658.541016	1179.068726
2707.643989	17475.550667	1657.512695	1430.214233
2707.643989	17475.550667	1656.483398	1551.020020
2707.643989	17475.550667	1655.455078	1406.912964
2707.643989	17475.550667	1654.425781	1357.940796
2707.643989	17475.550667	1653.396484	1543.397705
2707.643989	17475.550667	1652.366211	1717.046021
2707.643989	17475.550667	1651.336914	1630.617798
2707.643989	17475.550667	1650.306641	2003.562744
2707.643989	17475.550667	1649.276367	2065.386230
2707.643989	17475.550667	1648.246094	2038.954590
2707.643989	17475.550667	1647.215820	2142.327393
2707.643989	17475.550667	1646.185547	2016.027466
2707.643989	17475.550667	1645.154297	2281.455566
2707.643989	17475.550667	1644.123047	2558.298828
2707.643989	17475.550667	1643.091797	2580.052734
2707.643989	17475.550667	1642.060547	2585.515381
2707.643989	17475.550667	1641.028320	2715.966309
2707.643989	17475.550667	1639.997070	2746.752197
2707.643989	17475.550667	1638.964844	2761.225830
2707.643989	17475.550667	1637.931641	2958.501953
2707.643989	17475.550667	1636.899414	3114.020996
2707.643989	17475.550667	1635.867188	3033.380859
2707.643989	17475.550667	1634.833984	3049.872803
2707.643989	17475.550667	1633.800781	3096.389648
2707.643989	17475.550667	1632.767578	3133.598633
2707.643989	17475.550667	1631.734375	3217.007324
2707.643989	17475.550667	1630.700195	2935.023438
2707.643989	17475.550667	1629.666016	3221.759033
2707.643989	17475.550667	1628.631836	3610.049316
2707.643989	17475.550667	1627.597656	3422.813721
2707.643989	17475.550667	1626.563477	3378.865967
2707.643989	17475.550667	1625.528320	3540.451904
2707.643989	17475.550667	1624.493164	3561.095947
2707.643989	17475.550667	1623.458008	3334.676270
2707.643989	17475.550667	1622.422852	3763.924561
2707.643989	17475.550667	1621.387695	3666.791016
2707.643989	17475.550667	1620.351563	3595.043945
2707.643989	17475.550667	1619.315430	3846.316650
2707.643989	17475.550667	1618.279297	4079.045410
2707.643989	17475.550667	1617.243164	3753.605225
2707.643989	17475.550667	1616.207031	3829.499023
2707.643989	17475.550667	1615.169922	3674.818848
2707.643989	17475.550667	1614.132813	3621.631836
2707.643989	17475.550667	1613.095703	3840.403809
2707.643989	17475.550667	1612.058594	3695.099365
2707.643989	17475.550667	1611.020508	3413.941162
2707.643989	17475.550667	1609.983398	4042.656982
2707.643989	17475.550667	1608.945313	4026.408936
2707.643989	17475.550667	1607.907227	3319.569824
2707.643989	17475.550667	1606.868164	3462.332031
2707.643989	17475.550667	1605.830078	3786.920654
2707.643989	17475.550667	1604.791016	3694.954834
2707.643989	17475.550667	1603.751953	4083.846924
2707.643989	17475.550667	1602.712891	4164.461426
2707.643989	17475.550667	1601.673828	4079.545410
2707.643989	17475.550667	1600.633789	3902.730957
2707.643989	17475.550667	1599.594727	4360.484863
2707.643989	17475.550667	1598.554688	4337.792480
2707.643989	17475.550667	1597.513672	4301.361816
2707.643989	17475.550667	1596.473633	4019.259033
2707.643989	17475.550667	1595.433594	4102.528320
2707.643989	17475.550667	1594.392578	4077.885498
2707.643989	17475.550667	1593.351563	4227.824707
2707.643989	17475.550667	1592.310547	4083.983154
2707.643989	17475.550667	1591.268555	4289.087402
2707.643989	17475.550667	1590.227539	4347.395996
2707.643989	17475.550667	1589.185547	4148.811035
2707.643989	17475.550667	1588.143555	4390.778809
2707.643989	17475.550667	1587.100586	4442.393066
2707.643989	17475.550667	1586.058594	4290.077148
2707.643989	17475.550667	1585.015625	4007.242432
