#X		#Y		#Wave		#Intensity
2849.840266	17432.460000	2000.043945	25.395245
2849.840266	17432.460000	1999.080078	-42.375465
2849.840266	17432.460000	1998.116211	10.337228
2849.840266	17432.460000	1997.151367	62.813854
2849.840266	17432.460000	1996.186523	-58.381580
2849.840266	17432.460000	1995.222656	53.118618
2849.840266	17432.460000	1994.256836	-85.771294
2849.840266	17432.460000	1993.291992	-21.748379
2849.840266	17432.460000	1992.327148	59.394749
2849.840266	17432.460000	1991.361328	-37.899567
2849.840266	17432.460000	1990.395508	-51.185295
2849.840266	17432.460000	1989.429688	-20.094318
2849.840266	17432.460000	1988.463867	70.197899
2849.840266	17432.460000	1987.497070	-20.269087
2849.840266	17432.460000	1986.531250	49.895134
2849.840266	17432.460000	1985.564453	-1.271202
2849.840266	17432.460000	1984.597656	-79.754173
2849.840266	17432.460000	1983.630859	-47.116577
2849.840266	17432.460000	1982.664063	-4.736771
2849.840266	17432.460000	1981.696289	81.976456
2849.840266	17432.460000	1980.728516	94.426056
2849.840266	17432.460000	1979.761719	-14.271529
2849.840266	17432.460000	1978.792969	67.107346
2849.840266	17432.460000	1977.825195	106.375740
2849.840266	17432.460000	1976.857422	41.848930
2849.840266	17432.460000	1975.888672	-30.156395
2849.840266	17432.460000	1974.919922	18.682922
2849.840266	17432.460000	1973.951172	3.268295
2849.840266	17432.460000	1972.982422	-64.027046
2849.840266	17432.460000	1972.013672	-0.669817
2849.840266	17432.460000	1971.043945	102.038063
2849.840266	17432.460000	1970.075195	133.138916
2849.840266	17432.460000	1969.105469	-37.961102
2849.840266	17432.460000	1968.135742	54.625553
2849.840266	17432.460000	1967.165039	70.731064
2849.840266	17432.460000	1966.195313	153.284409
2849.840266	17432.460000	1965.224609	73.189384
2849.840266	17432.460000	1964.253906	-56.181229
2849.840266	17432.460000	1963.283203	-20.593817
2849.840266	17432.460000	1962.312500	-63.840500
2849.840266	17432.460000	1961.341797	18.404434
2849.840266	17432.460000	1960.370117	41.518105
2849.840266	17432.460000	1959.399414	76.885643
2849.840266	17432.460000	1958.427734	104.822891
2849.840266	17432.460000	1957.455078	-56.656139
2849.840266	17432.460000	1956.483398	3.195227
2849.840266	17432.460000	1955.511719	94.954559
2849.840266	17432.460000	1954.539063	51.462894
2849.840266	17432.460000	1953.566406	52.198063
2849.840266	17432.460000	1952.593750	-23.258829
2849.840266	17432.460000	1951.621094	90.451561
2849.840266	17432.460000	1950.647461	61.643051
2849.840266	17432.460000	1949.674805	121.235962
2849.840266	17432.460000	1948.701172	1.557826
2849.840266	17432.460000	1947.727539	93.023666
2849.840266	17432.460000	1946.753906	108.360886
2849.840266	17432.460000	1945.780273	47.613724
2849.840266	17432.460000	1944.805664	109.551338
2849.840266	17432.460000	1943.831055	51.265289
2849.840266	17432.460000	1942.856445	-95.292900
2849.840266	17432.460000	1941.881836	47.542576
2849.840266	17432.460000	1940.907227	124.131310
2849.840266	17432.460000	1939.932617	36.465160
2849.840266	17432.460000	1938.957031	34.606369
2849.840266	17432.460000	1937.981445	96.456703
2849.840266	17432.460000	1937.005859	62.747360
2849.840266	17432.460000	1936.030273	41.302727
2849.840266	17432.460000	1935.054688	85.991577
2849.840266	17432.460000	1934.078125	5.801205
2849.840266	17432.460000	1933.101563	-20.495579
2849.840266	17432.460000	1932.125000	-24.745731
2849.840266	17432.460000	1931.148438	27.297487
2849.840266	17432.460000	1930.171875	-109.053558
2849.840266	17432.460000	1929.194336	-32.530781
2849.840266	17432.460000	1928.217773	41.531925
2849.840266	17432.460000	1927.240234	69.119827
2849.840266	17432.460000	1926.262695	94.267303
2849.840266	17432.460000	1925.284180	-17.461542
2849.840266	17432.460000	1924.306641	71.262421
2849.840266	17432.460000	1923.328125	-25.729391
2849.840266	17432.460000	1922.350586	70.323875
2849.840266	17432.460000	1921.372070	-14.386028
2849.840266	17432.460000	1920.392578	86.545395
2849.840266	17432.460000	1919.414063	-117.737915
2849.840266	17432.460000	1918.434570	-14.348425
2849.840266	17432.460000	1917.456055	10.920641
2849.840266	17432.460000	1916.476563	-24.807343
2849.840266	17432.460000	1915.497070	-36.105812
2849.840266	17432.460000	1914.516602	-15.671384
2849.840266	17432.460000	1913.537109	31.602324
2849.840266	17432.460000	1912.556641	34.986160
2849.840266	17432.460000	1911.576172	-73.756607
2849.840266	17432.460000	1910.595703	-50.816612
2849.840266	17432.460000	1909.615234	-18.117924
2849.840266	17432.460000	1908.633789	92.557312
2849.840266	17432.460000	1907.653320	152.052124
2849.840266	17432.460000	1906.671875	-0.356994
2849.840266	17432.460000	1905.690430	-69.894363
2849.840266	17432.460000	1904.708984	-27.388985
2849.840266	17432.460000	1903.727539	95.450722
2849.840266	17432.460000	1902.745117	35.725380
2849.840266	17432.460000	1901.762695	-45.859367
2849.840266	17432.460000	1900.780273	-42.243698
2849.840266	17432.460000	1899.797852	-75.098289
2849.840266	17432.460000	1898.815430	11.245025
2849.840266	17432.460000	1897.832031	-21.572643
2849.840266	17432.460000	1896.849609	86.642593
2849.840266	17432.460000	1895.866211	46.564354
2849.840266	17432.460000	1894.882813	-124.712341
2849.840266	17432.460000	1893.898438	-106.390648
2849.840266	17432.460000	1892.915039	60.126186
2849.840266	17432.460000	1891.930664	-38.146614
2849.840266	17432.460000	1890.947266	48.188625
2849.840266	17432.460000	1889.962891	-67.012032
2849.840266	17432.460000	1888.977539	-34.080814
2849.840266	17432.460000	1887.993164	-10.856274
2849.840266	17432.460000	1887.007813	70.609001
2849.840266	17432.460000	1886.023438	-8.066355
2849.840266	17432.460000	1885.038086	-1.803798
2849.840266	17432.460000	1884.051758	35.995255
2849.840266	17432.460000	1883.066406	47.118767
2849.840266	17432.460000	1882.081055	19.458979
2849.840266	17432.460000	1881.094727	23.328564
2849.840266	17432.460000	1880.108398	97.483459
2849.840266	17432.460000	1879.122070	108.622261
2849.840266	17432.460000	1878.135742	-32.850891
2849.840266	17432.460000	1877.148438	-106.448051
2849.840266	17432.460000	1876.162109	100.889061
2849.840266	17432.460000	1875.174805	-23.537348
2849.840266	17432.460000	1874.187500	14.271242
2849.840266	17432.460000	1873.199219	100.473167
2849.840266	17432.460000	1872.211914	-52.908047
2849.840266	17432.460000	1871.223633	86.504532
2849.840266	17432.460000	1870.236328	-16.016582
2849.840266	17432.460000	1869.248047	-87.059059
2849.840266	17432.460000	1868.258789	18.434242
2849.840266	17432.460000	1867.270508	121.470421
2849.840266	17432.460000	1866.282227	-17.235329
2849.840266	17432.460000	1865.292969	-18.146786
2849.840266	17432.460000	1864.303711	-125.369301
2849.840266	17432.460000	1863.314453	16.258242
2849.840266	17432.460000	1862.324219	34.653141
2849.840266	17432.460000	1861.334961	11.985090
2849.840266	17432.460000	1860.344727	47.263767
2849.840266	17432.460000	1859.354492	128.385529
2849.840266	17432.460000	1858.364258	26.051737
2849.840266	17432.460000	1857.374023	97.480377
2849.840266	17432.460000	1856.383789	-50.663067
2849.840266	17432.460000	1855.392578	13.498605
2849.840266	17432.460000	1854.401367	26.983099
2849.840266	17432.460000	1853.410156	21.161955
2849.840266	17432.460000	1852.418945	-8.775182
2849.840266	17432.460000	1851.426758	101.078873
2849.840266	17432.460000	1850.435547	107.257988
2849.840266	17432.460000	1849.443359	96.555321
2849.840266	17432.460000	1848.451172	88.251106
2849.840266	17432.460000	1847.458984	-1.952327
2849.840266	17432.460000	1846.466797	47.523357
2849.840266	17432.460000	1845.473633	65.665337
2849.840266	17432.460000	1844.480469	-58.234146
2849.840266	17432.460000	1843.487305	159.631516
2849.840266	17432.460000	1842.494141	213.777420
2849.840266	17432.460000	1841.500977	29.718687
2849.840266	17432.460000	1840.506836	182.441406
2849.840266	17432.460000	1839.513672	32.081913
2849.840266	17432.460000	1838.519531	64.485229
2849.840266	17432.460000	1837.525391	24.736010
2849.840266	17432.460000	1836.530273	54.676727
2849.840266	17432.460000	1835.536133	-4.329051
2849.840266	17432.460000	1834.541016	42.372623
2849.840266	17432.460000	1833.545898	177.906540
2849.840266	17432.460000	1832.550781	99.617676
2849.840266	17432.460000	1831.555664	114.976013
2849.840266	17432.460000	1830.560547	0.661007
2849.840266	17432.460000	1829.564453	61.577976
2849.840266	17432.460000	1828.568359	24.049625
2849.840266	17432.460000	1827.572266	48.887749
2849.840266	17432.460000	1826.576172	-31.867325
2849.840266	17432.460000	1825.580078	19.290550
2849.840266	17432.460000	1824.583008	-11.136751
2849.840266	17432.460000	1823.585938	61.508614
2849.840266	17432.460000	1822.588867	4.647852
2849.840266	17432.460000	1821.591797	177.852081
2849.840266	17432.460000	1820.594727	80.184624
2849.840266	17432.460000	1819.596680	35.223385
2849.840266	17432.460000	1818.599609	30.962437
2849.840266	17432.460000	1817.601563	5.110475
2849.840266	17432.460000	1816.603516	29.512152
2849.840266	17432.460000	1815.604492	-87.378029
2849.840266	17432.460000	1814.606445	-94.162346
2849.840266	17432.460000	1813.607422	11.486771
2849.840266	17432.460000	1812.608398	126.624596
2849.840266	17432.460000	1811.609375	62.268387
2849.840266	17432.460000	1810.610352	150.961014
2849.840266	17432.460000	1809.610352	60.234699
2849.840266	17432.460000	1808.611328	60.349487
2849.840266	17432.460000	1807.611328	93.883507
2849.840266	17432.460000	1806.611328	7.866932
2849.840266	17432.460000	1805.610352	132.104294
2849.840266	17432.460000	1804.610352	48.411217
2849.840266	17432.460000	1803.609375	48.299587
2849.840266	17432.460000	1802.608398	174.708481
2849.840266	17432.460000	1801.607422	136.277084
2849.840266	17432.460000	1800.606445	76.328644
2849.840266	17432.460000	1799.605469	142.849518
2849.840266	17432.460000	1798.603516	51.801678
2849.840266	17432.460000	1797.601563	-24.945808
2849.840266	17432.460000	1796.599609	105.811699
2849.840266	17432.460000	1795.597656	83.835503
2849.840266	17432.460000	1794.595703	-43.098446
2849.840266	17432.460000	1793.592773	27.833954
2849.840266	17432.460000	1792.589844	53.400974
2849.840266	17432.460000	1791.587891	5.032704
2849.840266	17432.460000	1790.583984	44.783543
2849.840266	17432.460000	1789.581055	39.207256
2849.840266	17432.460000	1788.577148	66.921875
2849.840266	17432.460000	1787.574219	187.445511
2849.840266	17432.460000	1786.570313	150.731445
2849.840266	17432.460000	1785.566406	11.621153
2849.840266	17432.460000	1784.561523	79.559944
2849.840266	17432.460000	1783.557617	21.308552
2849.840266	17432.460000	1782.552734	84.352150
2849.840266	17432.460000	1781.547852	45.036823
2849.840266	17432.460000	1780.542969	36.596687
2849.840266	17432.460000	1779.538086	99.433838
2849.840266	17432.460000	1778.532227	-56.516907
2849.840266	17432.460000	1777.527344	22.838408
2849.840266	17432.460000	1776.521484	87.845711
2849.840266	17432.460000	1775.515625	-96.695404
2849.840266	17432.460000	1774.508789	-24.681334
2849.840266	17432.460000	1773.502930	68.625900
2849.840266	17432.460000	1772.496094	-6.754828
2849.840266	17432.460000	1771.489258	-86.913300
2849.840266	17432.460000	1770.482422	22.790464
2849.840266	17432.460000	1769.475586	27.974497
2849.840266	17432.460000	1768.467773	123.257751
2849.840266	17432.460000	1767.460938	64.252480
2849.840266	17432.460000	1766.453125	21.809483
2849.840266	17432.460000	1765.445313	7.780284
2849.840266	17432.460000	1764.437500	-39.495842
2849.840266	17432.460000	1763.428711	-112.891861
2849.840266	17432.460000	1762.420898	-179.205551
2849.840266	17432.460000	1761.412109	19.833303
2849.840266	17432.460000	1760.403320	38.684963
2849.840266	17432.460000	1759.393555	164.054901
2849.840266	17432.460000	1758.384766	-39.859558
2849.840266	17432.460000	1757.375000	54.577625
2849.840266	17432.460000	1756.366211	82.638733
2849.840266	17432.460000	1755.356445	39.619270
2849.840266	17432.460000	1754.345703	-29.478468
2849.840266	17432.460000	1753.335938	74.109390
2849.840266	17432.460000	1752.325195	12.008106
2849.840266	17432.460000	1751.315430	51.572620
2849.840266	17432.460000	1750.304688	88.693138
2849.840266	17432.460000	1749.292969	-61.032764
2849.840266	17432.460000	1748.282227	32.704796
2849.840266	17432.460000	1747.270508	29.448555
2849.840266	17432.460000	1746.259766	118.288429
2849.840266	17432.460000	1745.248047	62.926632
2849.840266	17432.460000	1744.235352	-138.916656
2849.840266	17432.460000	1743.223633	152.806351
2849.840266	17432.460000	1742.211914	28.822512
2849.840266	17432.460000	1741.199219	-3.116147
2849.840266	17432.460000	1740.186523	16.820122
2849.840266	17432.460000	1739.173828	-109.608238
2849.840266	17432.460000	1738.160156	-87.422287
2849.840266	17432.460000	1737.147461	-27.557882
2849.840266	17432.460000	1736.133789	8.636976
2849.840266	17432.460000	1735.120117	91.916672
2849.840266	17432.460000	1734.106445	-95.994431
2849.840266	17432.460000	1733.091797	24.863838
2849.840266	17432.460000	1732.078125	-134.799759
2849.840266	17432.460000	1731.063477	-9.383010
2849.840266	17432.460000	1730.048828	12.282347
2849.840266	17432.460000	1729.034180	-29.706717
2849.840266	17432.460000	1728.019531	5.968942
2849.840266	17432.460000	1727.003906	1.547068
2849.840266	17432.460000	1725.988281	34.731350
2849.840266	17432.460000	1724.972656	67.847298
2849.840266	17432.460000	1723.957031	-75.572517
2849.840266	17432.460000	1722.941406	-61.378349
2849.840266	17432.460000	1721.924805	-37.842426
2849.840266	17432.460000	1720.909180	32.666653
2849.840266	17432.460000	1719.892578	-75.594673
2849.840266	17432.460000	1718.875977	-38.128365
2849.840266	17432.460000	1717.858398	-68.891861
2849.840266	17432.460000	1716.841797	-59.744545
2849.840266	17432.460000	1715.824219	-6.023608
2849.840266	17432.460000	1714.806641	52.322460
2849.840266	17432.460000	1713.789063	-63.187859
2849.840266	17432.460000	1712.770508	-89.489258
2849.840266	17432.460000	1711.752930	-17.231133
2849.840266	17432.460000	1710.734375	17.389530
2849.840266	17432.460000	1709.715820	23.786814
2849.840266	17432.460000	1708.697266	25.439692
2849.840266	17432.460000	1707.678711	-12.834963
2849.840266	17432.460000	1706.659180	80.183693
2849.840266	17432.460000	1705.640625	1.953789
2849.840266	17432.460000	1704.621094	12.784678
2849.840266	17432.460000	1703.600586	46.995575
2849.840266	17432.460000	1702.581055	31.939911
2849.840266	17432.460000	1701.561523	-112.021385
2849.840266	17432.460000	1700.541016	109.457329
2849.840266	17432.460000	1699.520508	-36.905159
2849.840266	17432.460000	1698.500000	-108.324127
2849.840266	17432.460000	1697.478516	14.552292
2849.840266	17432.460000	1696.458008	6.262161
2849.840266	17432.460000	1695.436523	47.070198
2849.840266	17432.460000	1694.415039	3.585090
2849.840266	17432.460000	1693.393555	13.879664
2849.840266	17432.460000	1692.372070	38.161522
2849.840266	17432.460000	1691.349609	-26.477901
2849.840266	17432.460000	1690.327148	-91.133354
2849.840266	17432.460000	1689.304688	80.292923
2849.840266	17432.460000	1688.282227	158.127197
2849.840266	17432.460000	1687.259766	46.619110
2849.840266	17432.460000	1686.236328	126.680244
2849.840266	17432.460000	1685.213867	152.955978
2849.840266	17432.460000	1684.190430	97.438820
2849.840266	17432.460000	1683.166016	60.578014
2849.840266	17432.460000	1682.142578	54.049919
2849.840266	17432.460000	1681.119141	-8.527856
2849.840266	17432.460000	1680.094727	106.225868
2849.840266	17432.460000	1679.070313	22.586399
2849.840266	17432.460000	1678.045898	-28.397762
2849.840266	17432.460000	1677.020508	-21.097958
2849.840266	17432.460000	1675.996094	4.827590
2849.840266	17432.460000	1674.970703	28.371853
2849.840266	17432.460000	1673.945313	182.404068
2849.840266	17432.460000	1672.919922	56.695904
2849.840266	17432.460000	1671.893555	84.775803
2849.840266	17432.460000	1670.868164	175.719711
2849.840266	17432.460000	1669.841797	-24.541138
2849.840266	17432.460000	1668.815430	36.051586
2849.840266	17432.460000	1667.789063	-47.752888
2849.840266	17432.460000	1666.761719	89.572815
2849.840266	17432.460000	1665.735352	33.663986
2849.840266	17432.460000	1664.708008	138.293411
2849.840266	17432.460000	1663.680664	187.024963
2849.840266	17432.460000	1662.653320	75.224571
2849.840266	17432.460000	1661.625000	56.454674
2849.840266	17432.460000	1660.597656	102.777542
2849.840266	17432.460000	1659.569336	139.753876
2849.840266	17432.460000	1658.541016	234.797272
2849.840266	17432.460000	1657.512695	160.155487
2849.840266	17432.460000	1656.483398	64.604782
2849.840266	17432.460000	1655.455078	259.426849
2849.840266	17432.460000	1654.425781	75.607018
2849.840266	17432.460000	1653.396484	-10.640236
2849.840266	17432.460000	1652.366211	207.226913
2849.840266	17432.460000	1651.336914	216.113312
2849.840266	17432.460000	1650.306641	180.882141
2849.840266	17432.460000	1649.276367	268.614136
2849.840266	17432.460000	1648.246094	214.799774
2849.840266	17432.460000	1647.215820	230.568222
2849.840266	17432.460000	1646.185547	257.910919
2849.840266	17432.460000	1645.154297	271.313019
2849.840266	17432.460000	1644.123047	458.535919
2849.840266	17432.460000	1643.091797	393.080414
2849.840266	17432.460000	1642.060547	343.858856
2849.840266	17432.460000	1641.028320	475.324615
2849.840266	17432.460000	1639.997070	409.875885
2849.840266	17432.460000	1638.964844	337.489471
2849.840266	17432.460000	1637.931641	448.012299
2849.840266	17432.460000	1636.899414	505.255707
2849.840266	17432.460000	1635.867188	474.529999
2849.840266	17432.460000	1634.833984	608.082947
2849.840266	17432.460000	1633.800781	445.470978
2849.840266	17432.460000	1632.767578	618.289063
2849.840266	17432.460000	1631.734375	529.730896
2849.840266	17432.460000	1630.700195	561.420654
2849.840266	17432.460000	1629.666016	576.915771
2849.840266	17432.460000	1628.631836	657.115906
2849.840266	17432.460000	1627.597656	614.820190
2849.840266	17432.460000	1626.563477	708.843750
2849.840266	17432.460000	1625.528320	821.302612
2849.840266	17432.460000	1624.493164	806.708252
2849.840266	17432.460000	1623.458008	732.092712
2849.840266	17432.460000	1622.422852	726.762268
2849.840266	17432.460000	1621.387695	629.120178
2849.840266	17432.460000	1620.351563	769.186584
2849.840266	17432.460000	1619.315430	789.238159
2849.840266	17432.460000	1618.279297	776.995911
2849.840266	17432.460000	1617.243164	810.889648
2849.840266	17432.460000	1616.207031	865.530029
2849.840266	17432.460000	1615.169922	871.739197
2849.840266	17432.460000	1614.132813	965.539246
2849.840266	17432.460000	1613.095703	946.399170
2849.840266	17432.460000	1612.058594	966.444763
2849.840266	17432.460000	1611.020508	822.939941
2849.840266	17432.460000	1609.983398	1041.086426
2849.840266	17432.460000	1608.945313	1003.567871
2849.840266	17432.460000	1607.907227	977.588440
2849.840266	17432.460000	1606.868164	868.766174
2849.840266	17432.460000	1605.830078	845.155212
2849.840266	17432.460000	1604.791016	819.261475
2849.840266	17432.460000	1603.751953	940.615784
2849.840266	17432.460000	1602.712891	907.848755
2849.840266	17432.460000	1601.673828	898.107544
2849.840266	17432.460000	1600.633789	1076.898071
2849.840266	17432.460000	1599.594727	908.567993
2849.840266	17432.460000	1598.554688	813.855591
2849.840266	17432.460000	1597.513672	942.064331
2849.840266	17432.460000	1596.473633	920.935303
2849.840266	17432.460000	1595.433594	741.362671
2849.840266	17432.460000	1594.392578	786.912964
2849.840266	17432.460000	1593.351563	749.818909
2849.840266	17432.460000	1592.310547	689.810181
2849.840266	17432.460000	1591.268555	779.014954
2849.840266	17432.460000	1590.227539	854.451355
2849.840266	17432.460000	1589.185547	716.531311
2849.840266	17432.460000	1588.143555	548.876099
2849.840266	17432.460000	1587.100586	805.540161
2849.840266	17432.460000	1586.058594	814.528809
2849.840266	17432.460000	1585.015625	702.046143
2849.840266	17432.460000	1583.972656	745.481262
2849.840266	17432.460000	1582.929688	646.866150
2849.840266	17432.460000	1581.886719	642.248230
2849.840266	17432.460000	1580.843750	635.374329
2849.840266	17432.460000	1579.799805	568.988525
