#X		#Y		#Wave		#Intensity
2697.762553	17475.550667	2000.043945	-185.525223
2697.762553	17475.550667	1999.080078	39.875515
2697.762553	17475.550667	1998.116211	-67.000061
2697.762553	17475.550667	1997.151367	34.007824
2697.762553	17475.550667	1996.186523	0.862512
2697.762553	17475.550667	1995.222656	-114.333885
2697.762553	17475.550667	1994.256836	102.112343
2697.762553	17475.550667	1993.291992	21.026497
2697.762553	17475.550667	1992.327148	-146.965515
2697.762553	17475.550667	1991.361328	-193.865143
2697.762553	17475.550667	1990.395508	182.204727
2697.762553	17475.550667	1989.429688	70.410378
2697.762553	17475.550667	1988.463867	-214.768570
2697.762553	17475.550667	1987.497070	91.109024
2697.762553	17475.550667	1986.531250	-36.151325
2697.762553	17475.550667	1985.564453	-195.724487
2697.762553	17475.550667	1984.597656	-9.342354
2697.762553	17475.550667	1983.630859	77.897560
2697.762553	17475.550667	1982.664063	90.771599
2697.762553	17475.550667	1981.696289	21.918772
2697.762553	17475.550667	1980.728516	69.017464
2697.762553	17475.550667	1979.761719	96.163635
2697.762553	17475.550667	1978.792969	66.339554
2697.762553	17475.550667	1977.825195	135.124817
2697.762553	17475.550667	1976.857422	-15.967777
2697.762553	17475.550667	1975.888672	156.167542
2697.762553	17475.550667	1974.919922	46.791264
2697.762553	17475.550667	1973.951172	112.488754
2697.762553	17475.550667	1972.982422	39.898956
2697.762553	17475.550667	1972.013672	68.329582
2697.762553	17475.550667	1971.043945	138.551987
2697.762553	17475.550667	1970.075195	-37.894936
2697.762553	17475.550667	1969.105469	83.866142
2697.762553	17475.550667	1968.135742	166.051605
2697.762553	17475.550667	1967.165039	132.306793
2697.762553	17475.550667	1966.195313	312.806641
2697.762553	17475.550667	1965.224609	133.553070
2697.762553	17475.550667	1964.253906	-72.802139
2697.762553	17475.550667	1963.283203	132.014221
2697.762553	17475.550667	1962.312500	-37.487442
2697.762553	17475.550667	1961.341797	157.263672
2697.762553	17475.550667	1960.370117	61.513012
2697.762553	17475.550667	1959.399414	130.577209
2697.762553	17475.550667	1958.427734	34.753147
2697.762553	17475.550667	1957.455078	238.955688
2697.762553	17475.550667	1956.483398	98.788528
2697.762553	17475.550667	1955.511719	179.889954
2697.762553	17475.550667	1954.539063	-65.991714
2697.762553	17475.550667	1953.566406	-36.575466
2697.762553	17475.550667	1952.593750	184.448624
2697.762553	17475.550667	1951.621094	191.634537
2697.762553	17475.550667	1950.647461	14.577672
2697.762553	17475.550667	1949.674805	11.918559
2697.762553	17475.550667	1948.701172	80.440422
2697.762553	17475.550667	1947.727539	-30.282267
2697.762553	17475.550667	1946.753906	222.261932
2697.762553	17475.550667	1945.780273	99.255241
2697.762553	17475.550667	1944.805664	-77.693001
2697.762553	17475.550667	1943.831055	-70.611176
2697.762553	17475.550667	1942.856445	71.348648
2697.762553	17475.550667	1941.881836	36.704258
2697.762553	17475.550667	1940.907227	56.005558
2697.762553	17475.550667	1939.932617	58.140251
2697.762553	17475.550667	1938.957031	-143.130554
2697.762553	17475.550667	1937.981445	35.461086
2697.762553	17475.550667	1937.005859	-18.736448
2697.762553	17475.550667	1936.030273	86.297981
2697.762553	17475.550667	1935.054688	-100.111839
2697.762553	17475.550667	1934.078125	-119.953239
2697.762553	17475.550667	1933.101563	-14.930406
2697.762553	17475.550667	1932.125000	-29.861385
2697.762553	17475.550667	1931.148438	33.531387
2697.762553	17475.550667	1930.171875	87.128914
2697.762553	17475.550667	1929.194336	-94.106262
2697.762553	17475.550667	1928.217773	-25.799261
2697.762553	17475.550667	1927.240234	59.616398
2697.762553	17475.550667	1926.262695	27.670286
2697.762553	17475.550667	1925.284180	76.416527
2697.762553	17475.550667	1924.306641	29.854568
2697.762553	17475.550667	1923.328125	-141.282242
2697.762553	17475.550667	1922.350586	-138.886261
2697.762553	17475.550667	1921.372070	-29.000568
2697.762553	17475.550667	1920.392578	19.814798
2697.762553	17475.550667	1919.414063	-107.157082
2697.762553	17475.550667	1918.434570	-53.417316
2697.762553	17475.550667	1917.456055	-77.775818
2697.762553	17475.550667	1916.476563	-192.389969
2697.762553	17475.550667	1915.497070	-219.106125
2697.762553	17475.550667	1914.516602	-99.433098
2697.762553	17475.550667	1913.537109	-21.240774
2697.762553	17475.550667	1912.556641	17.931591
2697.762553	17475.550667	1911.576172	-30.652319
2697.762553	17475.550667	1910.595703	-84.069786
2697.762553	17475.550667	1909.615234	-115.511429
2697.762553	17475.550667	1908.633789	-44.582890
2697.762553	17475.550667	1907.653320	240.718399
2697.762553	17475.550667	1906.671875	-100.025726
2697.762553	17475.550667	1905.690430	-4.720971
2697.762553	17475.550667	1904.708984	41.874451
2697.762553	17475.550667	1903.727539	110.383125
2697.762553	17475.550667	1902.745117	25.554735
2697.762553	17475.550667	1901.762695	30.813408
2697.762553	17475.550667	1900.780273	196.661499
2697.762553	17475.550667	1899.797852	138.680420
2697.762553	17475.550667	1898.815430	12.643920
2697.762553	17475.550667	1897.832031	-16.066559
2697.762553	17475.550667	1896.849609	-134.700333
2697.762553	17475.550667	1895.866211	28.681866
2697.762553	17475.550667	1894.882813	12.183458
2697.762553	17475.550667	1893.898438	100.185799
2697.762553	17475.550667	1892.915039	-32.896629
2697.762553	17475.550667	1891.930664	13.816854
2697.762553	17475.550667	1890.947266	92.093163
2697.762553	17475.550667	1889.962891	-125.854042
2697.762553	17475.550667	1888.977539	-6.291307
2697.762553	17475.550667	1887.993164	-134.320038
2697.762553	17475.550667	1887.007813	-191.922882
2697.762553	17475.550667	1886.023438	-164.584122
2697.762553	17475.550667	1885.038086	-37.797153
2697.762553	17475.550667	1884.051758	18.616631
2697.762553	17475.550667	1883.066406	130.781219
2697.762553	17475.550667	1882.081055	-132.856812
2697.762553	17475.550667	1881.094727	-86.144875
2697.762553	17475.550667	1880.108398	-116.997673
2697.762553	17475.550667	1879.122070	-50.923229
2697.762553	17475.550667	1878.135742	-30.903233
2697.762553	17475.550667	1877.148438	83.565430
2697.762553	17475.550667	1876.162109	-68.385574
2697.762553	17475.550667	1875.174805	217.934753
2697.762553	17475.550667	1874.187500	20.010063
2697.762553	17475.550667	1873.199219	-56.838272
2697.762553	17475.550667	1872.211914	84.109306
2697.762553	17475.550667	1871.223633	198.380585
2697.762553	17475.550667	1870.236328	-287.275543
2697.762553	17475.550667	1869.248047	-114.963203
2697.762553	17475.550667	1868.258789	6.493961
2697.762553	17475.550667	1867.270508	-43.752800
2697.762553	17475.550667	1866.282227	307.227142
2697.762553	17475.550667	1865.292969	75.663185
2697.762553	17475.550667	1864.303711	32.622932
2697.762553	17475.550667	1863.314453	127.269058
2697.762553	17475.550667	1862.324219	16.563280
2697.762553	17475.550667	1861.334961	142.519348
2697.762553	17475.550667	1860.344727	94.572792
2697.762553	17475.550667	1859.354492	77.996391
2697.762553	17475.550667	1858.364258	203.786774
2697.762553	17475.550667	1857.374023	114.747200
2697.762553	17475.550667	1856.383789	32.946564
2697.762553	17475.550667	1855.392578	134.458664
2697.762553	17475.550667	1854.401367	16.442123
2697.762553	17475.550667	1853.410156	129.902359
2697.762553	17475.550667	1852.418945	33.552799
2697.762553	17475.550667	1851.426758	67.351830
2697.762553	17475.550667	1850.435547	62.541412
2697.762553	17475.550667	1849.443359	156.471390
2697.762553	17475.550667	1848.451172	-188.090012
2697.762553	17475.550667	1847.458984	86.393867
2697.762553	17475.550667	1846.466797	-46.217045
2697.762553	17475.550667	1845.473633	100.443596
2697.762553	17475.550667	1844.480469	95.355148
2697.762553	17475.550667	1843.487305	-123.969154
2697.762553	17475.550667	1842.494141	56.155807
2697.762553	17475.550667	1841.500977	-23.655146
2697.762553	17475.550667	1840.506836	230.836182
2697.762553	17475.550667	1839.513672	148.504639
2697.762553	17475.550667	1838.519531	22.868013
2697.762553	17475.550667	1837.525391	87.124794
2697.762553	17475.550667	1836.530273	-14.540743
2697.762553	17475.550667	1835.536133	164.917648
2697.762553	17475.550667	1834.541016	262.559296
2697.762553	17475.550667	1833.545898	112.684525
2697.762553	17475.550667	1832.550781	56.462894
2697.762553	17475.550667	1831.555664	62.624535
2697.762553	17475.550667	1830.560547	-46.520340
2697.762553	17475.550667	1829.564453	57.927975
2697.762553	17475.550667	1828.568359	49.473297
2697.762553	17475.550667	1827.572266	136.922943
2697.762553	17475.550667	1826.576172	80.330322
2697.762553	17475.550667	1825.580078	244.340668
2697.762553	17475.550667	1824.583008	103.663933
2697.762553	17475.550667	1823.585938	135.585587
2697.762553	17475.550667	1822.588867	37.971603
2697.762553	17475.550667	1821.591797	86.508263
2697.762553	17475.550667	1820.594727	77.435600
2697.762553	17475.550667	1819.596680	192.859711
2697.762553	17475.550667	1818.599609	94.975906
2697.762553	17475.550667	1817.601563	-65.225121
2697.762553	17475.550667	1816.603516	-12.351793
2697.762553	17475.550667	1815.604492	162.500534
2697.762553	17475.550667	1814.606445	116.999596
2697.762553	17475.550667	1813.607422	-79.339157
2697.762553	17475.550667	1812.608398	76.013931
2697.762553	17475.550667	1811.609375	13.530473
2697.762553	17475.550667	1810.610352	10.768982
2697.762553	17475.550667	1809.610352	175.295792
2697.762553	17475.550667	1808.611328	50.384262
2697.762553	17475.550667	1807.611328	195.524460
2697.762553	17475.550667	1806.611328	17.879509
2697.762553	17475.550667	1805.610352	7.457793
2697.762553	17475.550667	1804.610352	-93.837585
2697.762553	17475.550667	1803.609375	-8.896164
2697.762553	17475.550667	1802.608398	221.582336
2697.762553	17475.550667	1801.607422	-85.342422
2697.762553	17475.550667	1800.606445	63.691959
2697.762553	17475.550667	1799.605469	-45.200134
2697.762553	17475.550667	1798.603516	-77.800919
2697.762553	17475.550667	1797.601563	130.469772
2697.762553	17475.550667	1796.599609	214.514450
2697.762553	17475.550667	1795.597656	179.173172
2697.762553	17475.550667	1794.595703	107.968597
2697.762553	17475.550667	1793.592773	105.812424
2697.762553	17475.550667	1792.589844	-63.303436
2697.762553	17475.550667	1791.587891	15.379957
2697.762553	17475.550667	1790.583984	-29.987347
2697.762553	17475.550667	1789.581055	17.458885
2697.762553	17475.550667	1788.577148	160.037247
2697.762553	17475.550667	1787.574219	-95.223282
2697.762553	17475.550667	1786.570313	16.140034
2697.762553	17475.550667	1785.566406	-141.637833
2697.762553	17475.550667	1784.561523	-11.507300
2697.762553	17475.550667	1783.557617	89.907265
2697.762553	17475.550667	1782.552734	-156.179276
2697.762553	17475.550667	1781.547852	142.403152
2697.762553	17475.550667	1780.542969	-63.410397
2697.762553	17475.550667	1779.538086	-50.519791
2697.762553	17475.550667	1778.532227	69.214790
2697.762553	17475.550667	1777.527344	131.745682
2697.762553	17475.550667	1776.521484	186.995483
2697.762553	17475.550667	1775.515625	-4.988948
2697.762553	17475.550667	1774.508789	-73.507637
2697.762553	17475.550667	1773.502930	159.505081
2697.762553	17475.550667	1772.496094	164.344955
2697.762553	17475.550667	1771.489258	209.417816
2697.762553	17475.550667	1770.482422	-123.055939
2697.762553	17475.550667	1769.475586	303.885376
2697.762553	17475.550667	1768.467773	213.280029
2697.762553	17475.550667	1767.460938	44.306534
2697.762553	17475.550667	1766.453125	148.023041
2697.762553	17475.550667	1765.445313	197.032486
2697.762553	17475.550667	1764.437500	295.687256
2697.762553	17475.550667	1763.428711	69.415741
2697.762553	17475.550667	1762.420898	198.614563
2697.762553	17475.550667	1761.412109	187.825180
2697.762553	17475.550667	1760.403320	53.718586
2697.762553	17475.550667	1759.393555	90.071442
2697.762553	17475.550667	1758.384766	-63.164928
2697.762553	17475.550667	1757.375000	39.239536
2697.762553	17475.550667	1756.366211	188.832382
2697.762553	17475.550667	1755.356445	357.167450
2697.762553	17475.550667	1754.345703	260.263977
2697.762553	17475.550667	1753.335938	18.955423
2697.762553	17475.550667	1752.325195	-250.783127
2697.762553	17475.550667	1751.315430	28.154789
2697.762553	17475.550667	1750.304688	-33.651722
2697.762553	17475.550667	1749.292969	81.738556
2697.762553	17475.550667	1748.282227	166.240479
2697.762553	17475.550667	1747.270508	85.144440
2697.762553	17475.550667	1746.259766	188.262283
2697.762553	17475.550667	1745.248047	170.723785
2697.762553	17475.550667	1744.235352	-52.431065
2697.762553	17475.550667	1743.223633	-44.194359
2697.762553	17475.550667	1742.211914	67.797157
2697.762553	17475.550667	1741.199219	96.991234
2697.762553	17475.550667	1740.186523	-39.160019
2697.762553	17475.550667	1739.173828	-165.945297
2697.762553	17475.550667	1738.160156	-118.237442
2697.762553	17475.550667	1737.147461	0.100923
2697.762553	17475.550667	1736.133789	45.151779
2697.762553	17475.550667	1735.120117	-16.042246
2697.762553	17475.550667	1734.106445	-51.405491
2697.762553	17475.550667	1733.091797	-20.895260
2697.762553	17475.550667	1732.078125	-51.777218
2697.762553	17475.550667	1731.063477	-61.576881
2697.762553	17475.550667	1730.048828	-177.497055
2697.762553	17475.550667	1729.034180	-189.867249
2697.762553	17475.550667	1728.019531	-39.880222
2697.762553	17475.550667	1727.003906	-262.054413
2697.762553	17475.550667	1725.988281	-8.796161
2697.762553	17475.550667	1724.972656	-139.349960
2697.762553	17475.550667	1723.957031	-69.975906
2697.762553	17475.550667	1722.941406	112.170441
2697.762553	17475.550667	1721.924805	-117.483482
2697.762553	17475.550667	1720.909180	64.367638
2697.762553	17475.550667	1719.892578	-92.538292
2697.762553	17475.550667	1718.875977	-108.461250
2697.762553	17475.550667	1717.858398	164.568817
2697.762553	17475.550667	1716.841797	14.437242
2697.762553	17475.550667	1715.824219	23.989561
2697.762553	17475.550667	1714.806641	106.238747
2697.762553	17475.550667	1713.789063	77.969818
2697.762553	17475.550667	1712.770508	127.069389
2697.762553	17475.550667	1711.752930	169.009857
2697.762553	17475.550667	1710.734375	156.829163
2697.762553	17475.550667	1709.715820	128.118042
2697.762553	17475.550667	1708.697266	73.501427
2697.762553	17475.550667	1707.678711	63.366974
2697.762553	17475.550667	1706.659180	165.687729
2697.762553	17475.550667	1705.640625	122.499855
2697.762553	17475.550667	1704.621094	72.177155
2697.762553	17475.550667	1703.600586	298.335571
2697.762553	17475.550667	1702.581055	362.620300
2697.762553	17475.550667	1701.561523	363.517914
2697.762553	17475.550667	1700.541016	350.244202
2697.762553	17475.550667	1699.520508	261.929077
2697.762553	17475.550667	1698.500000	400.687836
2697.762553	17475.550667	1697.478516	284.090546
2697.762553	17475.550667	1696.458008	371.100922
2697.762553	17475.550667	1695.436523	479.029724
2697.762553	17475.550667	1694.415039	554.064087
2697.762553	17475.550667	1693.393555	577.508789
2697.762553	17475.550667	1692.372070	678.037903
2697.762553	17475.550667	1691.349609	563.278564
2697.762553	17475.550667	1690.327148	794.505310
2697.762553	17475.550667	1689.304688	838.545349
2697.762553	17475.550667	1688.282227	1027.383423
2697.762553	17475.550667	1687.259766	842.188599
2697.762553	17475.550667	1686.236328	1163.931641
2697.762553	17475.550667	1685.213867	1069.708008
2697.762553	17475.550667	1684.190430	1008.117004
2697.762553	17475.550667	1683.166016	1102.890137
2697.762553	17475.550667	1682.142578	821.713074
2697.762553	17475.550667	1681.119141	979.358398
2697.762553	17475.550667	1680.094727	1097.178101
2697.762553	17475.550667	1679.070313	1023.559875
2697.762553	17475.550667	1678.045898	1136.507080
2697.762553	17475.550667	1677.020508	1079.067871
2697.762553	17475.550667	1675.996094	1070.560791
2697.762553	17475.550667	1674.970703	1108.594727
2697.762553	17475.550667	1673.945313	1111.580322
2697.762553	17475.550667	1672.919922	1321.901489
2697.762553	17475.550667	1671.893555	1322.359497
2697.762553	17475.550667	1670.868164	1397.312378
2697.762553	17475.550667	1669.841797	1500.102905
2697.762553	17475.550667	1668.815430	1395.543213
2697.762553	17475.550667	1667.789063	1395.727539
2697.762553	17475.550667	1666.761719	1335.314209
2697.762553	17475.550667	1665.735352	1295.825928
2697.762553	17475.550667	1664.708008	1474.998535
2697.762553	17475.550667	1663.680664	1405.123047
2697.762553	17475.550667	1662.653320	1253.811279
2697.762553	17475.550667	1661.625000	1383.869629
2697.762553	17475.550667	1660.597656	1641.717041
2697.762553	17475.550667	1659.569336	1274.087036
2697.762553	17475.550667	1658.541016	1413.208252
2697.762553	17475.550667	1657.512695	1436.044189
2697.762553	17475.550667	1656.483398	1314.766235
2697.762553	17475.550667	1655.455078	1744.004761
2697.762553	17475.550667	1654.425781	1685.327881
2697.762553	17475.550667	1653.396484	1865.784790
2697.762553	17475.550667	1652.366211	1811.648438
2697.762553	17475.550667	1651.336914	1829.462646
2697.762553	17475.550667	1650.306641	2063.023438
2697.762553	17475.550667	1649.276367	1762.838745
2697.762553	17475.550667	1648.246094	1854.753418
2697.762553	17475.550667	1647.215820	1960.514526
2697.762553	17475.550667	1646.185547	1913.166260
2697.762553	17475.550667	1645.154297	2021.113647
2697.762553	17475.550667	1644.123047	2036.277100
2697.762553	17475.550667	1643.091797	2062.995361
2697.762553	17475.550667	1642.060547	2010.901733
2697.762553	17475.550667	1641.028320	2028.280762
2697.762553	17475.550667	1639.997070	1934.479370
2697.762553	17475.550667	1638.964844	2148.649902
2697.762553	17475.550667	1637.931641	2133.500000
2697.762553	17475.550667	1636.899414	1875.315186
2697.762553	17475.550667	1635.867188	2003.692505
2697.762553	17475.550667	1634.833984	1993.161255
2697.762553	17475.550667	1633.800781	2183.882080
2697.762553	17475.550667	1632.767578	1999.828735
2697.762553	17475.550667	1631.734375	2174.265869
2697.762553	17475.550667	1630.700195	2152.091309
2697.762553	17475.550667	1629.666016	2208.510742
2697.762553	17475.550667	1628.631836	2313.438477
2697.762553	17475.550667	1627.597656	2085.587646
2697.762553	17475.550667	1626.563477	2500.060547
2697.762553	17475.550667	1625.528320	2447.785400
2697.762553	17475.550667	1624.493164	2460.192627
2697.762553	17475.550667	1623.458008	2384.862305
2697.762553	17475.550667	1622.422852	2383.434570
2697.762553	17475.550667	1621.387695	2245.846680
2697.762553	17475.550667	1620.351563	2343.668457
2697.762553	17475.550667	1619.315430	2464.532471
2697.762553	17475.550667	1618.279297	2292.422852
2697.762553	17475.550667	1617.243164	2145.761230
2697.762553	17475.550667	1616.207031	2179.018066
2697.762553	17475.550667	1615.169922	2050.891846
2697.762553	17475.550667	1614.132813	2446.027100
2697.762553	17475.550667	1613.095703	2075.980469
2697.762553	17475.550667	1612.058594	2328.157471
2697.762553	17475.550667	1611.020508	2082.690674
2697.762553	17475.550667	1609.983398	2162.089844
2697.762553	17475.550667	1608.945313	2266.795654
2697.762553	17475.550667	1607.907227	2102.140137
2697.762553	17475.550667	1606.868164	1776.445068
2697.762553	17475.550667	1605.830078	2023.930908
2697.762553	17475.550667	1604.791016	1852.595581
2697.762553	17475.550667	1603.751953	1955.100586
2697.762553	17475.550667	1602.712891	1901.211426
2697.762553	17475.550667	1601.673828	1801.392456
2697.762553	17475.550667	1600.633789	1860.264771
2697.762553	17475.550667	1599.594727	1785.858765
2697.762553	17475.550667	1598.554688	1955.104370
2697.762553	17475.550667	1597.513672	1809.534546
2697.762553	17475.550667	1596.473633	1735.300537
2697.762553	17475.550667	1595.433594	1927.564331
2697.762553	17475.550667	1594.392578	1814.379028
2697.762553	17475.550667	1593.351563	1976.790527
2697.762553	17475.550667	1592.310547	1735.202881
2697.762553	17475.550667	1591.268555	1828.807739
2697.762553	17475.550667	1590.227539	1771.013428
2697.762553	17475.550667	1589.185547	1743.106445
2697.762553	17475.550667	1588.143555	2132.704590
2697.762553	17475.550667	1587.100586	1726.470703
2697.762553	17475.550667	1586.058594	1870.724487
2697.762553	17475.550667	1585.015625	1865.971802
