#X		#Y		#Wave		#Intensity
2843.815000	17431.970333	2000.043945	64.655312
2843.815000	17431.970333	1999.080078	-113.100502
2843.815000	17431.970333	1998.116211	-71.276337
2843.815000	17431.970333	1997.151367	24.814440
2843.815000	17431.970333	1996.186523	56.217293
2843.815000	17431.970333	1995.222656	-34.002995
2843.815000	17431.970333	1994.256836	-37.715919
2843.815000	17431.970333	1993.291992	-83.735909
2843.815000	17431.970333	1992.327148	70.602882
2843.815000	17431.970333	1991.361328	-22.848658
2843.815000	17431.970333	1990.395508	-17.456764
2843.815000	17431.970333	1989.429688	96.628777
2843.815000	17431.970333	1988.463867	165.964569
2843.815000	17431.970333	1987.497070	24.854319
2843.815000	17431.970333	1986.531250	69.116516
2843.815000	17431.970333	1985.564453	71.172249
2843.815000	17431.970333	1984.597656	-25.809813
2843.815000	17431.970333	1983.630859	37.762836
2843.815000	17431.970333	1982.664063	108.587547
2843.815000	17431.970333	1981.696289	28.534660
2843.815000	17431.970333	1980.728516	180.598083
2843.815000	17431.970333	1979.761719	75.614891
2843.815000	17431.970333	1978.792969	-108.467514
2843.815000	17431.970333	1977.825195	134.541595
2843.815000	17431.970333	1976.857422	179.873016
2843.815000	17431.970333	1975.888672	22.705688
2843.815000	17431.970333	1974.919922	38.233204
2843.815000	17431.970333	1973.951172	51.197174
2843.815000	17431.970333	1972.982422	-49.398212
2843.815000	17431.970333	1972.013672	-26.726133
2843.815000	17431.970333	1971.043945	3.256093
2843.815000	17431.970333	1970.075195	30.689602
2843.815000	17431.970333	1969.105469	102.410400
2843.815000	17431.970333	1968.135742	206.076736
2843.815000	17431.970333	1967.165039	134.702271
2843.815000	17431.970333	1966.195313	-101.754883
2843.815000	17431.970333	1965.224609	28.811861
2843.815000	17431.970333	1964.253906	112.491226
2843.815000	17431.970333	1963.283203	104.994804
2843.815000	17431.970333	1962.312500	134.383698
2843.815000	17431.970333	1961.341797	48.046024
2843.815000	17431.970333	1960.370117	-30.915234
2843.815000	17431.970333	1959.399414	52.499969
2843.815000	17431.970333	1958.427734	69.436951
2843.815000	17431.970333	1957.455078	-12.035959
2843.815000	17431.970333	1956.483398	-76.288429
2843.815000	17431.970333	1955.511719	41.386959
2843.815000	17431.970333	1954.539063	112.296089
2843.815000	17431.970333	1953.566406	77.488991
2843.815000	17431.970333	1952.593750	8.282663
2843.815000	17431.970333	1951.621094	133.163467
2843.815000	17431.970333	1950.647461	110.617546
2843.815000	17431.970333	1949.674805	34.049767
2843.815000	17431.970333	1948.701172	60.625217
2843.815000	17431.970333	1947.727539	-13.457571
2843.815000	17431.970333	1946.753906	-35.971924
2843.815000	17431.970333	1945.780273	86.302902
2843.815000	17431.970333	1944.805664	-22.087830
2843.815000	17431.970333	1943.831055	58.446697
2843.815000	17431.970333	1942.856445	33.500542
2843.815000	17431.970333	1941.881836	55.161816
2843.815000	17431.970333	1940.907227	-23.689430
2843.815000	17431.970333	1939.932617	113.201775
2843.815000	17431.970333	1938.957031	41.745586
2843.815000	17431.970333	1937.981445	-49.270382
2843.815000	17431.970333	1937.005859	-47.144089
2843.815000	17431.970333	1936.030273	-120.929413
2843.815000	17431.970333	1935.054688	23.280146
2843.815000	17431.970333	1934.078125	-70.040039
2843.815000	17431.970333	1933.101563	-82.521713
2843.815000	17431.970333	1932.125000	-31.341049
2843.815000	17431.970333	1931.148438	-56.013668
2843.815000	17431.970333	1930.171875	44.122501
2843.815000	17431.970333	1929.194336	68.415710
2843.815000	17431.970333	1928.217773	26.695030
2843.815000	17431.970333	1927.240234	58.371811
2843.815000	17431.970333	1926.262695	-59.065136
2843.815000	17431.970333	1925.284180	65.554115
2843.815000	17431.970333	1924.306641	53.302334
2843.815000	17431.970333	1923.328125	-76.198631
2843.815000	17431.970333	1922.350586	-54.157974
2843.815000	17431.970333	1921.372070	-90.715057
2843.815000	17431.970333	1920.392578	-22.222376
2843.815000	17431.970333	1919.414063	80.460159
2843.815000	17431.970333	1918.434570	-97.591911
2843.815000	17431.970333	1917.456055	-9.513124
2843.815000	17431.970333	1916.476563	34.641247
2843.815000	17431.970333	1915.497070	27.576927
2843.815000	17431.970333	1914.516602	-30.677402
2843.815000	17431.970333	1913.537109	13.555304
2843.815000	17431.970333	1912.556641	-68.991547
2843.815000	17431.970333	1911.576172	111.821075
2843.815000	17431.970333	1910.595703	-2.333457
2843.815000	17431.970333	1909.615234	0.564849
2843.815000	17431.970333	1908.633789	-15.997823
2843.815000	17431.970333	1907.653320	28.382973
2843.815000	17431.970333	1906.671875	-31.953201
2843.815000	17431.970333	1905.690430	10.043896
2843.815000	17431.970333	1904.708984	32.581116
2843.815000	17431.970333	1903.727539	-71.439896
2843.815000	17431.970333	1902.745117	-0.154538
2843.815000	17431.970333	1901.762695	22.469114
2843.815000	17431.970333	1900.780273	96.208107
2843.815000	17431.970333	1899.797852	36.165623
2843.815000	17431.970333	1898.815430	68.593750
2843.815000	17431.970333	1897.832031	-22.969046
2843.815000	17431.970333	1896.849609	43.555431
2843.815000	17431.970333	1895.866211	-174.299973
2843.815000	17431.970333	1894.882813	42.959137
2843.815000	17431.970333	1893.898438	-16.823574
2843.815000	17431.970333	1892.915039	-35.256279
2843.815000	17431.970333	1891.930664	-5.077476
2843.815000	17431.970333	1890.947266	-25.877422
2843.815000	17431.970333	1889.962891	-107.340340
2843.815000	17431.970333	1888.977539	61.282299
2843.815000	17431.970333	1887.993164	26.000097
2843.815000	17431.970333	1887.007813	41.713905
2843.815000	17431.970333	1886.023438	-42.022377
2843.815000	17431.970333	1885.038086	-26.251684
2843.815000	17431.970333	1884.051758	88.969238
2843.815000	17431.970333	1883.066406	-4.356687
2843.815000	17431.970333	1882.081055	-46.714890
2843.815000	17431.970333	1881.094727	24.883894
2843.815000	17431.970333	1880.108398	33.469509
2843.815000	17431.970333	1879.122070	-18.500774
2843.815000	17431.970333	1878.135742	36.156364
2843.815000	17431.970333	1877.148438	129.563995
2843.815000	17431.970333	1876.162109	-21.622007
2843.815000	17431.970333	1875.174805	-39.573696
2843.815000	17431.970333	1874.187500	97.419250
2843.815000	17431.970333	1873.199219	108.526802
2843.815000	17431.970333	1872.211914	56.731792
2843.815000	17431.970333	1871.223633	-86.962929
2843.815000	17431.970333	1870.236328	-20.151270
2843.815000	17431.970333	1869.248047	32.137444
2843.815000	17431.970333	1868.258789	74.746147
2843.815000	17431.970333	1867.270508	-34.951401
2843.815000	17431.970333	1866.282227	92.270920
2843.815000	17431.970333	1865.292969	-43.952030
2843.815000	17431.970333	1864.303711	-83.470711
2843.815000	17431.970333	1863.314453	55.791630
2843.815000	17431.970333	1862.324219	-36.851921
2843.815000	17431.970333	1861.334961	3.356529
2843.815000	17431.970333	1860.344727	94.254471
2843.815000	17431.970333	1859.354492	-49.020813
2843.815000	17431.970333	1858.364258	-71.569832
2843.815000	17431.970333	1857.374023	-0.003364
2843.815000	17431.970333	1856.383789	-44.262737
2843.815000	17431.970333	1855.392578	89.985626
2843.815000	17431.970333	1854.401367	36.079674
2843.815000	17431.970333	1853.410156	71.403732
2843.815000	17431.970333	1852.418945	125.996941
2843.815000	17431.970333	1851.426758	52.824699
2843.815000	17431.970333	1850.435547	95.344566
2843.815000	17431.970333	1849.443359	-30.809092
2843.815000	17431.970333	1848.451172	71.920410
2843.815000	17431.970333	1847.458984	61.408634
2843.815000	17431.970333	1846.466797	53.301155
2843.815000	17431.970333	1845.473633	52.409534
2843.815000	17431.970333	1844.480469	-39.959011
2843.815000	17431.970333	1843.487305	-14.380584
2843.815000	17431.970333	1842.494141	76.142456
2843.815000	17431.970333	1841.500977	55.956867
2843.815000	17431.970333	1840.506836	-89.306976
2843.815000	17431.970333	1839.513672	44.424408
2843.815000	17431.970333	1838.519531	38.639210
2843.815000	17431.970333	1837.525391	-60.911900
2843.815000	17431.970333	1836.530273	36.638706
2843.815000	17431.970333	1835.536133	-10.044032
2843.815000	17431.970333	1834.541016	53.787724
2843.815000	17431.970333	1833.545898	-0.125528
2843.815000	17431.970333	1832.550781	30.017607
2843.815000	17431.970333	1831.555664	-69.535675
2843.815000	17431.970333	1830.560547	133.416901
2843.815000	17431.970333	1829.564453	-2.167764
2843.815000	17431.970333	1828.568359	-32.133533
2843.815000	17431.970333	1827.572266	177.822968
2843.815000	17431.970333	1826.576172	59.024181
2843.815000	17431.970333	1825.580078	-42.966747
2843.815000	17431.970333	1824.583008	121.230797
2843.815000	17431.970333	1823.585938	43.185726
2843.815000	17431.970333	1822.588867	25.068642
2843.815000	17431.970333	1821.591797	62.051613
2843.815000	17431.970333	1820.594727	-6.442784
2843.815000	17431.970333	1819.596680	-15.049667
2843.815000	17431.970333	1818.599609	26.616564
2843.815000	17431.970333	1817.601563	13.152153
2843.815000	17431.970333	1816.603516	100.222946
2843.815000	17431.970333	1815.604492	139.347534
2843.815000	17431.970333	1814.606445	56.355183
2843.815000	17431.970333	1813.607422	160.014267
2843.815000	17431.970333	1812.608398	65.012756
2843.815000	17431.970333	1811.609375	103.969604
2843.815000	17431.970333	1810.610352	11.331406
2843.815000	17431.970333	1809.610352	21.510637
2843.815000	17431.970333	1808.611328	38.820435
2843.815000	17431.970333	1807.611328	103.888672
2843.815000	17431.970333	1806.611328	68.517372
2843.815000	17431.970333	1805.610352	-2.724357
2843.815000	17431.970333	1804.610352	59.801685
2843.815000	17431.970333	1803.609375	141.368591
2843.815000	17431.970333	1802.608398	146.443161
2843.815000	17431.970333	1801.607422	118.045792
2843.815000	17431.970333	1800.606445	-1.098020
2843.815000	17431.970333	1799.605469	156.616165
2843.815000	17431.970333	1798.603516	73.212288
2843.815000	17431.970333	1797.601563	61.367378
2843.815000	17431.970333	1796.599609	11.314298
2843.815000	17431.970333	1795.597656	20.855755
2843.815000	17431.970333	1794.595703	116.185097
2843.815000	17431.970333	1793.592773	166.132751
2843.815000	17431.970333	1792.589844	68.232956
2843.815000	17431.970333	1791.587891	72.795013
2843.815000	17431.970333	1790.583984	8.205515
2843.815000	17431.970333	1789.581055	41.261547
2843.815000	17431.970333	1788.577148	7.563164
2843.815000	17431.970333	1787.574219	9.547644
2843.815000	17431.970333	1786.570313	11.477954
2843.815000	17431.970333	1785.566406	108.570374
2843.815000	17431.970333	1784.561523	15.176492
2843.815000	17431.970333	1783.557617	116.884422
2843.815000	17431.970333	1782.552734	109.062729
2843.815000	17431.970333	1781.547852	86.918678
2843.815000	17431.970333	1780.542969	57.594498
2843.815000	17431.970333	1779.538086	149.487823
2843.815000	17431.970333	1778.532227	-29.714556
2843.815000	17431.970333	1777.527344	14.515142
2843.815000	17431.970333	1776.521484	63.422379
2843.815000	17431.970333	1775.515625	48.106392
2843.815000	17431.970333	1774.508789	-126.415619
2843.815000	17431.970333	1773.502930	33.945137
2843.815000	17431.970333	1772.496094	42.216957
2843.815000	17431.970333	1771.489258	88.412910
2843.815000	17431.970333	1770.482422	113.171455
2843.815000	17431.970333	1769.475586	-14.019818
2843.815000	17431.970333	1768.467773	27.239838
2843.815000	17431.970333	1767.460938	-47.813091
2843.815000	17431.970333	1766.453125	-99.180191
2843.815000	17431.970333	1765.445313	-164.814285
2843.815000	17431.970333	1764.437500	-0.503621
2843.815000	17431.970333	1763.428711	-2.249998
2843.815000	17431.970333	1762.420898	33.868740
2843.815000	17431.970333	1761.412109	-53.305737
2843.815000	17431.970333	1760.403320	41.915195
2843.815000	17431.970333	1759.393555	137.037354
2843.815000	17431.970333	1758.384766	66.291969
2843.815000	17431.970333	1757.375000	116.266930
2843.815000	17431.970333	1756.366211	-1.912734
2843.815000	17431.970333	1755.356445	88.172676
2843.815000	17431.970333	1754.345703	14.878444
2843.815000	17431.970333	1753.335938	19.632238
2843.815000	17431.970333	1752.325195	-72.665108
2843.815000	17431.970333	1751.315430	-172.078354
2843.815000	17431.970333	1750.304688	-136.735168
2843.815000	17431.970333	1749.292969	-89.648895
2843.815000	17431.970333	1748.282227	-14.271582
2843.815000	17431.970333	1747.270508	-2.795198
2843.815000	17431.970333	1746.259766	-26.820498
2843.815000	17431.970333	1745.248047	45.955479
2843.815000	17431.970333	1744.235352	-11.264696
2843.815000	17431.970333	1743.223633	18.854624
2843.815000	17431.970333	1742.211914	30.015455
2843.815000	17431.970333	1741.199219	-24.987633
2843.815000	17431.970333	1740.186523	71.017273
2843.815000	17431.970333	1739.173828	34.785686
2843.815000	17431.970333	1738.160156	-1.495355
2843.815000	17431.970333	1737.147461	141.447525
2843.815000	17431.970333	1736.133789	29.575592
2843.815000	17431.970333	1735.120117	-89.385231
2843.815000	17431.970333	1734.106445	-73.987938
2843.815000	17431.970333	1733.091797	-195.362625
2843.815000	17431.970333	1732.078125	-15.112748
2843.815000	17431.970333	1731.063477	-65.887413
2843.815000	17431.970333	1730.048828	15.212999
2843.815000	17431.970333	1729.034180	23.215601
2843.815000	17431.970333	1728.019531	14.674380
2843.815000	17431.970333	1727.003906	-38.656246
2843.815000	17431.970333	1725.988281	9.189998
2843.815000	17431.970333	1724.972656	5.187537
2843.815000	17431.970333	1723.957031	-100.044174
2843.815000	17431.970333	1722.941406	-71.202560
2843.815000	17431.970333	1721.924805	-77.713097
2843.815000	17431.970333	1720.909180	-32.536861
2843.815000	17431.970333	1719.892578	59.583717
2843.815000	17431.970333	1718.875977	128.107040
2843.815000	17431.970333	1717.858398	-69.027786
2843.815000	17431.970333	1716.841797	-7.663715
2843.815000	17431.970333	1715.824219	-66.196381
2843.815000	17431.970333	1714.806641	11.472519
2843.815000	17431.970333	1713.789063	-7.225464
2843.815000	17431.970333	1712.770508	70.291153
2843.815000	17431.970333	1711.752930	-131.620819
2843.815000	17431.970333	1710.734375	-44.826202
2843.815000	17431.970333	1709.715820	91.161758
2843.815000	17431.970333	1708.697266	-143.644272
2843.815000	17431.970333	1707.678711	-21.865427
2843.815000	17431.970333	1706.659180	90.429665
2843.815000	17431.970333	1705.640625	8.019796
2843.815000	17431.970333	1704.621094	108.445396
2843.815000	17431.970333	1703.600586	68.142876
2843.815000	17431.970333	1702.581055	112.178413
2843.815000	17431.970333	1701.561523	128.032639
2843.815000	17431.970333	1700.541016	-78.715340
2843.815000	17431.970333	1699.520508	0.305533
2843.815000	17431.970333	1698.500000	-5.050191
2843.815000	17431.970333	1697.478516	83.191978
2843.815000	17431.970333	1696.458008	-41.646805
2843.815000	17431.970333	1695.436523	13.713420
2843.815000	17431.970333	1694.415039	-43.304253
2843.815000	17431.970333	1693.393555	42.358845
2843.815000	17431.970333	1692.372070	50.760906
2843.815000	17431.970333	1691.349609	-90.554436
2843.815000	17431.970333	1690.327148	67.413254
2843.815000	17431.970333	1689.304688	35.932621
2843.815000	17431.970333	1688.282227	-30.634403
2843.815000	17431.970333	1687.259766	120.097069
2843.815000	17431.970333	1686.236328	37.098251
2843.815000	17431.970333	1685.213867	66.217575
2843.815000	17431.970333	1684.190430	106.956902
2843.815000	17431.970333	1683.166016	184.993515
2843.815000	17431.970333	1682.142578	-7.827346
2843.815000	17431.970333	1681.119141	72.467926
2843.815000	17431.970333	1680.094727	8.008118
2843.815000	17431.970333	1679.070313	20.530424
2843.815000	17431.970333	1678.045898	7.352885
2843.815000	17431.970333	1677.020508	96.756546
2843.815000	17431.970333	1675.996094	62.515255
2843.815000	17431.970333	1674.970703	-4.391121
2843.815000	17431.970333	1673.945313	119.826073
2843.815000	17431.970333	1672.919922	17.913599
2843.815000	17431.970333	1671.893555	53.469776
2843.815000	17431.970333	1670.868164	165.862503
2843.815000	17431.970333	1669.841797	173.367294
2843.815000	17431.970333	1668.815430	71.394554
2843.815000	17431.970333	1667.789063	27.637341
2843.815000	17431.970333	1666.761719	225.943390
2843.815000	17431.970333	1665.735352	135.572464
2843.815000	17431.970333	1664.708008	187.138733
2843.815000	17431.970333	1663.680664	73.486313
2843.815000	17431.970333	1662.653320	129.645218
2843.815000	17431.970333	1661.625000	-14.240048
2843.815000	17431.970333	1660.597656	130.216995
2843.815000	17431.970333	1659.569336	118.840744
2843.815000	17431.970333	1658.541016	81.881706
2843.815000	17431.970333	1657.512695	75.122841
2843.815000	17431.970333	1656.483398	228.640701
2843.815000	17431.970333	1655.455078	261.302429
2843.815000	17431.970333	1654.425781	266.056763
2843.815000	17431.970333	1653.396484	1.452688
2843.815000	17431.970333	1652.366211	43.353783
2843.815000	17431.970333	1651.336914	85.228882
2843.815000	17431.970333	1650.306641	101.537880
2843.815000	17431.970333	1649.276367	166.546570
2843.815000	17431.970333	1648.246094	301.103851
2843.815000	17431.970333	1647.215820	233.826187
2843.815000	17431.970333	1646.185547	256.991211
2843.815000	17431.970333	1645.154297	268.535706
2843.815000	17431.970333	1644.123047	354.234314
2843.815000	17431.970333	1643.091797	495.505280
2843.815000	17431.970333	1642.060547	472.208740
2843.815000	17431.970333	1641.028320	323.813232
2843.815000	17431.970333	1639.997070	518.247681
2843.815000	17431.970333	1638.964844	397.670166
2843.815000	17431.970333	1637.931641	284.070099
2843.815000	17431.970333	1636.899414	381.151459
2843.815000	17431.970333	1635.867188	499.017517
2843.815000	17431.970333	1634.833984	468.741760
2843.815000	17431.970333	1633.800781	429.220490
2843.815000	17431.970333	1632.767578	368.893890
2843.815000	17431.970333	1631.734375	338.649933
2843.815000	17431.970333	1630.700195	280.663696
2843.815000	17431.970333	1629.666016	532.445740
2843.815000	17431.970333	1628.631836	580.752625
2843.815000	17431.970333	1627.597656	501.955322
2843.815000	17431.970333	1626.563477	476.323547
2843.815000	17431.970333	1625.528320	540.776062
2843.815000	17431.970333	1624.493164	625.989380
2843.815000	17431.970333	1623.458008	475.669434
2843.815000	17431.970333	1622.422852	480.075165
2843.815000	17431.970333	1621.387695	489.099487
2843.815000	17431.970333	1620.351563	500.425262
2843.815000	17431.970333	1619.315430	458.690460
2843.815000	17431.970333	1618.279297	500.016937
2843.815000	17431.970333	1617.243164	534.416199
2843.815000	17431.970333	1616.207031	695.624756
2843.815000	17431.970333	1615.169922	598.582520
2843.815000	17431.970333	1614.132813	646.791016
2843.815000	17431.970333	1613.095703	641.990784
2843.815000	17431.970333	1612.058594	637.203613
2843.815000	17431.970333	1611.020508	823.611511
2843.815000	17431.970333	1609.983398	664.513184
2843.815000	17431.970333	1608.945313	894.617798
2843.815000	17431.970333	1607.907227	696.452271
2843.815000	17431.970333	1606.868164	756.158630
2843.815000	17431.970333	1605.830078	652.478455
2843.815000	17431.970333	1604.791016	778.925049
2843.815000	17431.970333	1603.751953	797.224487
2843.815000	17431.970333	1602.712891	886.830750
2843.815000	17431.970333	1601.673828	893.641357
2843.815000	17431.970333	1600.633789	787.810791
2843.815000	17431.970333	1599.594727	895.813171
2843.815000	17431.970333	1598.554688	829.132324
2843.815000	17431.970333	1597.513672	879.670898
2843.815000	17431.970333	1596.473633	817.657349
2843.815000	17431.970333	1595.433594	859.044312
2843.815000	17431.970333	1594.392578	794.802307
2843.815000	17431.970333	1593.351563	934.939331
2843.815000	17431.970333	1592.310547	889.120117
2843.815000	17431.970333	1591.268555	930.545166
2843.815000	17431.970333	1590.227539	717.298523
2843.815000	17431.970333	1589.185547	678.503113
2843.815000	17431.970333	1588.143555	903.514954
2843.815000	17431.970333	1587.100586	910.610840
2843.815000	17431.970333	1586.058594	871.885742
2843.815000	17431.970333	1585.015625	819.445740
2843.815000	17431.970333	1583.972656	922.899719
2843.815000	17431.970333	1582.929688	767.420654
2843.815000	17431.970333	1581.886719	834.252869
2843.815000	17431.970333	1580.843750	800.311035
2843.815000	17431.970333	1579.799805	933.580078
