#X		#Y		#Wave		#Intensity
9952.854255	4068.770000	1999.946289	-86.682831
9952.854255	4068.770000	1998.981445	75.032257
9952.854255	4068.770000	1998.017578	93.456764
9952.854255	4068.770000	1997.052734	-104.016388
9952.854255	4068.770000	1996.088867	0.555084
9952.854255	4068.770000	1995.124023	-11.621982
9952.854255	4068.770000	1994.159180	45.274136
9952.854255	4068.770000	1993.193359	-93.742760
9952.854255	4068.770000	1992.228516	-59.671982
9952.854255	4068.770000	1991.262695	87.999100
9952.854255	4068.770000	1990.296875	34.897499
9952.854255	4068.770000	1989.331055	-48.122055
9952.854255	4068.770000	1988.365234	-143.718628
9952.854255	4068.770000	1987.398438	-190.035004
9952.854255	4068.770000	1986.432617	62.676865
9952.854255	4068.770000	1985.465820	60.403404
9952.854255	4068.770000	1984.499023	85.113159
9952.854255	4068.770000	1983.532227	18.155230
9952.854255	4068.770000	1982.565430	0.446932
9952.854255	4068.770000	1981.597656	-22.386009
9952.854255	4068.770000	1980.629883	8.947596
9952.854255	4068.770000	1979.662109	-43.887230
9952.854255	4068.770000	1978.694336	145.121094
9952.854255	4068.770000	1977.726563	30.209627
9952.854255	4068.770000	1976.758789	-8.301694
9952.854255	4068.770000	1975.790039	69.040222
9952.854255	4068.770000	1974.821289	94.378548
9952.854255	4068.770000	1973.852539	-23.534473
9952.854255	4068.770000	1972.883789	-37.949646
9952.854255	4068.770000	1971.915039	179.320587
9952.854255	4068.770000	1970.945313	24.052298
9952.854255	4068.770000	1969.975586	223.709198
9952.854255	4068.770000	1969.005859	230.909225
9952.854255	4068.770000	1968.036133	141.875656
9952.854255	4068.770000	1967.066406	-6.376307
9952.854255	4068.770000	1966.096680	177.876419
9952.854255	4068.770000	1965.125977	86.099960
9952.854255	4068.770000	1964.155273	-50.073788
9952.854255	4068.770000	1963.184570	13.128762
9952.854255	4068.770000	1962.213867	95.903954
9952.854255	4068.770000	1961.242188	176.093140
9952.854255	4068.770000	1960.271484	29.779936
9952.854255	4068.770000	1959.299805	-35.377598
9952.854255	4068.770000	1958.328125	177.360870
9952.854255	4068.770000	1957.356445	-23.224747
9952.854255	4068.770000	1956.384766	71.251778
9952.854255	4068.770000	1955.412109	13.200135
9952.854255	4068.770000	1954.439453	200.894852
9952.854255	4068.770000	1953.467773	164.821564
9952.854255	4068.770000	1952.495117	187.667953
9952.854255	4068.770000	1951.521484	94.986649
9952.854255	4068.770000	1950.548828	-49.296291
9952.854255	4068.770000	1949.575195	71.631210
9952.854255	4068.770000	1948.601563	140.901993
9952.854255	4068.770000	1947.627930	89.816628
9952.854255	4068.770000	1946.654297	127.057449
9952.854255	4068.770000	1945.680664	-100.773369
9952.854255	4068.770000	1944.706055	301.956085
9952.854255	4068.770000	1943.732422	39.755989
9952.854255	4068.770000	1942.757813	89.079857
9952.854255	4068.770000	1941.783203	-21.030472
9952.854255	4068.770000	1940.807617	89.507660
9952.854255	4068.770000	1939.833008	-23.074827
9952.854255	4068.770000	1938.857422	67.759018
9952.854255	4068.770000	1937.881836	249.189575
9952.854255	4068.770000	1936.906250	41.021572
9952.854255	4068.770000	1935.930664	6.807673
9952.854255	4068.770000	1934.955078	-15.169019
9952.854255	4068.770000	1933.978516	-117.953400
9952.854255	4068.770000	1933.001953	-7.749062
9952.854255	4068.770000	1932.025391	73.028679
9952.854255	4068.770000	1931.048828	53.438076
9952.854255	4068.770000	1930.072266	92.557823
9952.854255	4068.770000	1929.094727	14.241118
9952.854255	4068.770000	1928.118164	185.397324
9952.854255	4068.770000	1927.140625	-139.885956
9952.854255	4068.770000	1926.163086	-213.250122
9952.854255	4068.770000	1925.184570	40.937099
9952.854255	4068.770000	1924.207031	-27.554733
9952.854255	4068.770000	1923.228516	-3.178313
9952.854255	4068.770000	1922.250000	82.260742
9952.854255	4068.770000	1921.271484	-93.673981
9952.854255	4068.770000	1920.292969	74.776375
9952.854255	4068.770000	1919.314453	-44.933102
9952.854255	4068.770000	1918.334961	35.569752
9952.854255	4068.770000	1917.355469	81.878494
9952.854255	4068.770000	1916.375977	-13.355611
9952.854255	4068.770000	1915.396484	-69.513596
9952.854255	4068.770000	1914.416992	-18.318308
9952.854255	4068.770000	1913.436523	-179.310867
9952.854255	4068.770000	1912.457031	8.446619
9952.854255	4068.770000	1911.476563	-25.706013
9952.854255	4068.770000	1910.496094	-79.336662
9952.854255	4068.770000	1909.515625	13.279856
9952.854255	4068.770000	1908.534180	-30.574482
9952.854255	4068.770000	1907.552734	135.098694
9952.854255	4068.770000	1906.572266	105.873863
9952.854255	4068.770000	1905.590820	-25.606544
9952.854255	4068.770000	1904.608398	-30.423141
9952.854255	4068.770000	1903.626953	3.722786
9952.854255	4068.770000	1902.644531	67.072289
9952.854255	4068.770000	1901.663086	62.278469
9952.854255	4068.770000	1900.680664	-20.353191
9952.854255	4068.770000	1899.698242	-141.859833
9952.854255	4068.770000	1898.714844	-107.662811
9952.854255	4068.770000	1897.732422	-15.109263
9952.854255	4068.770000	1896.749023	-66.008942
9952.854255	4068.770000	1895.765625	36.252193
9952.854255	4068.770000	1894.782227	-51.063065
9952.854255	4068.770000	1893.798828	60.902752
9952.854255	4068.770000	1892.814453	-9.352849
9952.854255	4068.770000	1891.831055	107.448639
9952.854255	4068.770000	1890.846680	-69.608002
9952.854255	4068.770000	1889.862305	168.581268
9952.854255	4068.770000	1888.877930	193.082794
9952.854255	4068.770000	1887.892578	42.846165
9952.854255	4068.770000	1886.908203	6.726778
9952.854255	4068.770000	1885.922852	142.882690
9952.854255	4068.770000	1884.937500	-14.495351
9952.854255	4068.770000	1883.952148	124.065147
9952.854255	4068.770000	1882.965820	-59.897385
9952.854255	4068.770000	1881.980469	204.705582
9952.854255	4068.770000	1880.994141	-105.214928
9952.854255	4068.770000	1880.007813	91.469185
9952.854255	4068.770000	1879.021484	-53.534355
9952.854255	4068.770000	1878.035156	-60.393818
9952.854255	4068.770000	1877.047852	150.736816
9952.854255	4068.770000	1876.061523	-124.924309
9952.854255	4068.770000	1875.074219	59.529984
9952.854255	4068.770000	1874.086914	-44.126892
9952.854255	4068.770000	1873.098633	4.734260
9952.854255	4068.770000	1872.111328	-26.263277
9952.854255	4068.770000	1871.123047	-59.659588
9952.854255	4068.770000	1870.135742	-73.683998
9952.854255	4068.770000	1869.147461	-15.145128
9952.854255	4068.770000	1868.158203	33.707565
9952.854255	4068.770000	1867.169922	36.619286
9952.854255	4068.770000	1866.180664	133.798019
9952.854255	4068.770000	1865.192383	71.456665
9952.854255	4068.770000	1864.203125	6.728033
9952.854255	4068.770000	1863.213867	43.484913
9952.854255	4068.770000	1862.223633	-40.525398
9952.854255	4068.770000	1861.234375	37.285908
9952.854255	4068.770000	1860.244141	-51.511856
9952.854255	4068.770000	1859.253906	11.796819
9952.854255	4068.770000	1858.263672	29.230907
9952.854255	4068.770000	1857.273438	17.705862
9952.854255	4068.770000	1856.282227	30.310747
9952.854255	4068.770000	1855.291992	134.567871
9952.854255	4068.770000	1854.300781	-4.779642
9952.854255	4068.770000	1853.309570	31.934832
9952.854255	4068.770000	1852.317383	85.508331
9952.854255	4068.770000	1851.326172	119.779533
9952.854255	4068.770000	1850.333984	166.084335
9952.854255	4068.770000	1849.342773	-226.118484
9952.854255	4068.770000	1848.350586	102.060661
9952.854255	4068.770000	1847.357422	-114.179642
9952.854255	4068.770000	1846.365234	172.912369
9952.854255	4068.770000	1845.372070	-21.601892
9952.854255	4068.770000	1844.379883	58.350643
9952.854255	4068.770000	1843.386719	140.673172
9952.854255	4068.770000	1842.393555	35.281296
9952.854255	4068.770000	1841.399414	-142.247757
9952.854255	4068.770000	1840.406250	-81.603592
9952.854255	4068.770000	1839.412109	-49.848888
9952.854255	4068.770000	1838.417969	-133.521164
9952.854255	4068.770000	1837.423828	68.883842
9952.854255	4068.770000	1836.429688	148.630096
9952.854255	4068.770000	1835.434570	252.363129
9952.854255	4068.770000	1834.440430	-98.024513
9952.854255	4068.770000	1833.445313	142.606491
9952.854255	4068.770000	1832.450195	8.487265
9952.854255	4068.770000	1831.454102	136.126541
9952.854255	4068.770000	1830.458984	81.251938
9952.854255	4068.770000	1829.462891	-21.622332
9952.854255	4068.770000	1828.466797	53.108929
9952.854255	4068.770000	1827.470703	-25.760992
9952.854255	4068.770000	1826.474609	144.862961
9952.854255	4068.770000	1825.478516	27.594416
9952.854255	4068.770000	1824.481445	66.219353
9952.854255	4068.770000	1823.484375	44.871361
9952.854255	4068.770000	1822.487305	16.320313
9952.854255	4068.770000	1821.490234	45.278461
9952.854255	4068.770000	1820.493164	-4.870053
9952.854255	4068.770000	1819.495117	57.576687
9952.854255	4068.770000	1818.498047	-2.180616
9952.854255	4068.770000	1817.500000	285.306427
9952.854255	4068.770000	1816.500977	141.678772
9952.854255	4068.770000	1815.502930	36.382343
9952.854255	4068.770000	1814.504883	96.248932
9952.854255	4068.770000	1813.505859	139.314331
9952.854255	4068.770000	1812.506836	148.842270
9952.854255	4068.770000	1811.507813	74.616341
9952.854255	4068.770000	1810.508789	36.264862
9952.854255	4068.770000	1809.508789	107.893852
9952.854255	4068.770000	1808.508789	86.227119
9952.854255	4068.770000	1807.508789	-33.461479
9952.854255	4068.770000	1806.508789	188.609711
9952.854255	4068.770000	1805.508789	90.390305
9952.854255	4068.770000	1804.508789	-69.934685
9952.854255	4068.770000	1803.507813	68.325577
9952.854255	4068.770000	1802.506836	158.741791
9952.854255	4068.770000	1801.505859	208.501877
9952.854255	4068.770000	1800.504883	110.207886
9952.854255	4068.770000	1799.502930	159.889389
9952.854255	4068.770000	1798.501953	-5.239998
9952.854255	4068.770000	1797.500000	175.591354
9952.854255	4068.770000	1796.498047	-156.523148
9952.854255	4068.770000	1795.496094	67.123985
9952.854255	4068.770000	1794.493164	64.130592
9952.854255	4068.770000	1793.491211	80.172577
9952.854255	4068.770000	1792.488281	148.607193
9952.854255	4068.770000	1791.485352	19.184280
9952.854255	4068.770000	1790.482422	80.379959
9952.854255	4068.770000	1789.478516	-3.799886
9952.854255	4068.770000	1788.475586	35.863033
9952.854255	4068.770000	1787.471680	194.530334
9952.854255	4068.770000	1786.467773	-18.305714
9952.854255	4068.770000	1785.463867	28.354464
9952.854255	4068.770000	1784.459961	70.195030
9952.854255	4068.770000	1783.455078	195.257828
9952.854255	4068.770000	1782.450195	110.879044
9952.854255	4068.770000	1781.445313	93.088585
9952.854255	4068.770000	1780.440430	170.385086
9952.854255	4068.770000	1779.435547	64.530891
9952.854255	4068.770000	1778.429688	27.608677
9952.854255	4068.770000	1777.424805	104.742004
9952.854255	4068.770000	1776.418945	210.315353
9952.854255	4068.770000	1775.413086	33.078327
9952.854255	4068.770000	1774.406250	50.642799
9952.854255	4068.770000	1773.400391	284.275269
9952.854255	4068.770000	1772.393555	-66.350052
9952.854255	4068.770000	1771.386719	60.290096
9952.854255	4068.770000	1770.379883	25.431765
9952.854255	4068.770000	1769.373047	14.271944
9952.854255	4068.770000	1768.365234	173.897873
9952.854255	4068.770000	1767.358398	-114.931183
9952.854255	4068.770000	1766.350586	-38.448715
9952.854255	4068.770000	1765.342773	-7.097925
9952.854255	4068.770000	1764.334961	-70.642715
9952.854255	4068.770000	1763.326172	64.900459
9952.854255	4068.770000	1762.318359	193.235703
9952.854255	4068.770000	1761.309570	18.172079
9952.854255	4068.770000	1760.300781	-7.622983
9952.854255	4068.770000	1759.291016	49.441330
9952.854255	4068.770000	1758.282227	-68.808395
9952.854255	4068.770000	1757.272461	-92.356392
9952.854255	4068.770000	1756.262695	40.293106
9952.854255	4068.770000	1755.252930	-7.035818
9952.854255	4068.770000	1754.243164	92.316864
9952.854255	4068.770000	1753.233398	-73.400925
9952.854255	4068.770000	1752.222656	106.248055
9952.854255	4068.770000	1751.211914	75.291107
9952.854255	4068.770000	1750.201172	30.107038
9952.854255	4068.770000	1749.190430	-83.669456
9952.854255	4068.770000	1748.179688	-93.453491
9952.854255	4068.770000	1747.167969	0.692952
9952.854255	4068.770000	1746.156250	78.212509
9952.854255	4068.770000	1745.144531	77.694000
9952.854255	4068.770000	1744.132813	-116.547173
9952.854255	4068.770000	1743.121094	-258.816711
9952.854255	4068.770000	1742.108398	-2.083973
9952.854255	4068.770000	1741.095703	-0.436354
9952.854255	4068.770000	1740.083008	64.880074
9952.854255	4068.770000	1739.070313	-91.683502
9952.854255	4068.770000	1738.057617	-94.893654
9952.854255	4068.770000	1737.043945	-50.984623
9952.854255	4068.770000	1736.030273	106.052223
9952.854255	4068.770000	1735.016602	-97.767426
9952.854255	4068.770000	1734.002930	-39.894680
9952.854255	4068.770000	1732.989258	-198.931030
9952.854255	4068.770000	1731.974609	82.694748
9952.854255	4068.770000	1730.959961	-125.888290
9952.854255	4068.770000	1729.945313	-16.443720
9952.854255	4068.770000	1728.930664	-225.030991
9952.854255	4068.770000	1727.916016	42.049217
9952.854255	4068.770000	1726.900391	160.658005
9952.854255	4068.770000	1725.885742	112.056946
9952.854255	4068.770000	1724.870117	68.125282
9952.854255	4068.770000	1723.853516	26.507553
9952.854255	4068.770000	1722.837891	53.079918
9952.854255	4068.770000	1721.822266	72.534470
9952.854255	4068.770000	1720.805664	-35.054085
9952.854255	4068.770000	1719.789063	17.218348
9952.854255	4068.770000	1718.772461	-29.304285
9952.854255	4068.770000	1717.754883	-85.264168
9952.854255	4068.770000	1716.738281	-9.665399
9952.854255	4068.770000	1715.720703	58.803120
9952.854255	4068.770000	1714.703125	61.427574
9952.854255	4068.770000	1713.685547	-152.045685
9952.854255	4068.770000	1712.667969	-62.607632
9952.854255	4068.770000	1711.649414	26.742895
9952.854255	4068.770000	1710.630859	-27.156919
9952.854255	4068.770000	1709.612305	1.044770
9952.854255	4068.770000	1708.593750	-67.003311
9952.854255	4068.770000	1707.575195	-20.136808
9952.854255	4068.770000	1706.555664	-62.458260
9952.854255	4068.770000	1705.536133	-79.018883
9952.854255	4068.770000	1704.516602	143.499008
9952.854255	4068.770000	1703.497070	157.282288
9952.854255	4068.770000	1702.477539	159.295151
9952.854255	4068.770000	1701.457031	-68.353195
9952.854255	4068.770000	1700.437500	-204.597931
9952.854255	4068.770000	1699.416992	-123.029625
9952.854255	4068.770000	1698.395508	21.680103
9952.854255	4068.770000	1697.375000	49.236969
9952.854255	4068.770000	1696.354492	-33.275257
9952.854255	4068.770000	1695.333008	-5.813003
9952.854255	4068.770000	1694.311523	-41.579288
9952.854255	4068.770000	1693.290039	18.536638
9952.854255	4068.770000	1692.267578	15.431778
9952.854255	4068.770000	1691.246094	-1.741343
9952.854255	4068.770000	1690.223633	58.199501
9952.854255	4068.770000	1689.201172	150.800552
9952.854255	4068.770000	1688.178711	-81.533470
9952.854255	4068.770000	1687.155273	95.090393
9952.854255	4068.770000	1686.132813	166.481308
9952.854255	4068.770000	1685.109375	-56.506943
9952.854255	4068.770000	1684.085938	38.153530
9952.854255	4068.770000	1683.062500	-86.739922
9952.854255	4068.770000	1682.039063	14.814157
9952.854255	4068.770000	1681.014648	13.590371
9952.854255	4068.770000	1679.990234	33.330654
9952.854255	4068.770000	1678.965820	246.670273
9952.854255	4068.770000	1677.941406	56.348000
9952.854255	4068.770000	1676.916992	15.321388
9952.854255	4068.770000	1675.891602	39.555340
9952.854255	4068.770000	1674.866211	184.970688
9952.854255	4068.770000	1673.840820	64.581650
9952.854255	4068.770000	1672.815430	39.750065
9952.854255	4068.770000	1671.790039	35.862225
9952.854255	4068.770000	1670.763672	190.339935
9952.854255	4068.770000	1669.737305	60.584702
9952.854255	4068.770000	1668.710938	128.775772
9952.854255	4068.770000	1667.684570	201.565079
9952.854255	4068.770000	1666.658203	69.458076
9952.854255	4068.770000	1665.630859	25.800287
9952.854255	4068.770000	1664.603516	-117.922646
9952.854255	4068.770000	1663.576172	236.214661
9952.854255	4068.770000	1662.548828	-14.543068
9952.854255	4068.770000	1661.520508	181.243378
9952.854255	4068.770000	1660.493164	-43.889595
9952.854255	4068.770000	1659.464844	305.190704
9952.854255	4068.770000	1658.436523	100.976959
9952.854255	4068.770000	1657.408203	52.499043
9952.854255	4068.770000	1656.378906	82.995872
9952.854255	4068.770000	1655.350586	132.044174
9952.854255	4068.770000	1654.321289	136.918991
9952.854255	4068.770000	1653.291992	155.699066
9952.854255	4068.770000	1652.261719	216.225784
9952.854255	4068.770000	1651.232422	93.360222
9952.854255	4068.770000	1650.202148	260.573578
9952.854255	4068.770000	1649.171875	49.534508
9952.854255	4068.770000	1648.141602	258.401855
9952.854255	4068.770000	1647.111328	200.466339
9952.854255	4068.770000	1646.080078	362.802612
9952.854255	4068.770000	1645.049805	140.236862
9952.854255	4068.770000	1644.018555	411.420746
9952.854255	4068.770000	1642.987305	230.600220
9952.854255	4068.770000	1641.955078	307.000336
9952.854255	4068.770000	1640.923828	170.249084
9952.854255	4068.770000	1639.891602	394.823303
9952.854255	4068.770000	1638.859375	304.380066
9952.854255	4068.770000	1637.827148	262.575378
9952.854255	4068.770000	1636.794922	424.462585
9952.854255	4068.770000	1635.761719	271.534332
9952.854255	4068.770000	1634.729492	241.289825
9952.854255	4068.770000	1633.696289	280.436218
9952.854255	4068.770000	1632.662109	495.326752
9952.854255	4068.770000	1631.628906	365.581818
9952.854255	4068.770000	1630.594727	221.998337
9952.854255	4068.770000	1629.561523	226.405746
9952.854255	4068.770000	1628.527344	494.256256
9952.854255	4068.770000	1627.493164	378.433716
9952.854255	4068.770000	1626.458008	452.075165
9952.854255	4068.770000	1625.423828	437.919220
9952.854255	4068.770000	1624.388672	305.984528
9952.854255	4068.770000	1623.353516	534.270142
9952.854255	4068.770000	1622.318359	508.542328
9952.854255	4068.770000	1621.282227	572.822998
9952.854255	4068.770000	1620.247070	567.858582
9952.854255	4068.770000	1619.210938	558.273193
9952.854255	4068.770000	1618.174805	491.024811
9952.854255	4068.770000	1617.137695	656.712463
9952.854255	4068.770000	1616.101563	448.824860
9952.854255	4068.770000	1615.064453	582.184265
9952.854255	4068.770000	1614.027344	637.129578
9952.854255	4068.770000	1612.990234	510.015015
9952.854255	4068.770000	1611.953125	636.378418
9952.854255	4068.770000	1610.916016	610.669678
9952.854255	4068.770000	1609.877930	833.689026
9952.854255	4068.770000	1608.839844	750.390625
9952.854255	4068.770000	1607.801758	770.722290
9952.854255	4068.770000	1606.763672	878.515930
9952.854255	4068.770000	1605.724609	634.184021
9952.854255	4068.770000	1604.685547	797.186523
9952.854255	4068.770000	1603.646484	707.101257
9952.854255	4068.770000	1602.607422	803.347900
9952.854255	4068.770000	1601.568359	858.177124
9952.854255	4068.770000	1600.528320	850.916626
9952.854255	4068.770000	1599.489258	800.004883
9952.854255	4068.770000	1598.449219	1031.778320
9952.854255	4068.770000	1597.408203	815.434692
9952.854255	4068.770000	1596.368164	895.527954
9952.854255	4068.770000	1595.327148	1007.750793
9952.854255	4068.770000	1594.287109	933.953796
9952.854255	4068.770000	1593.246094	754.587585
9952.854255	4068.770000	1592.204102	875.991760
9952.854255	4068.770000	1591.163086	850.498230
9952.854255	4068.770000	1590.121094	864.030396
9952.854255	4068.770000	1589.079102	813.342957
9952.854255	4068.770000	1588.037109	937.004822
9952.854255	4068.770000	1586.995117	746.481628
9952.854255	4068.770000	1585.953125	714.245667
9952.854255	4068.770000	1584.910156	656.822083
9952.854255	4068.770000	1583.867188	730.073853
9952.854255	4068.770000	1582.824219	661.256531
9952.854255	4068.770000	1581.781250	663.505493
9952.854255	4068.770000	1580.737305	835.262085
9952.854255	4068.770000	1579.693359	743.628357
9952.854255	4068.770000	1578.649414	745.926147
9952.854255	4068.770000	1577.605469	741.380859
9952.854255	4068.770000	1576.561523	672.782166
9952.854255	4068.770000	1575.516602	572.195435
9952.854255	4068.770000	1574.472656	698.167603
9952.854255	4068.770000	1573.427734	782.941223
9952.854255	4068.770000	1572.381836	661.888062
9952.854255	4068.770000	1571.336914	611.796997
