#X		#Y		#Wave		#Intensity
10504.472872	5203.210000	1999.946289	135.499557
10504.472872	5203.210000	1998.981445	-142.430405
10504.472872	5203.210000	1998.017578	1.624424
10504.472872	5203.210000	1997.052734	-80.036499
10504.472872	5203.210000	1996.088867	93.380188
10504.472872	5203.210000	1995.124023	-102.512436
10504.472872	5203.210000	1994.159180	-87.949501
10504.472872	5203.210000	1993.193359	-11.619197
10504.472872	5203.210000	1992.228516	44.744267
10504.472872	5203.210000	1991.262695	-178.753387
10504.472872	5203.210000	1990.296875	137.237839
10504.472872	5203.210000	1989.331055	200.602341
10504.472872	5203.210000	1988.365234	137.657974
10504.472872	5203.210000	1987.398438	-9.471239
10504.472872	5203.210000	1986.432617	70.871002
10504.472872	5203.210000	1985.465820	54.652725
10504.472872	5203.210000	1984.499023	142.173309
10504.472872	5203.210000	1983.532227	34.305859
10504.472872	5203.210000	1982.565430	64.778816
10504.472872	5203.210000	1981.597656	87.743431
10504.472872	5203.210000	1980.629883	122.968834
10504.472872	5203.210000	1979.662109	56.840492
10504.472872	5203.210000	1978.694336	-83.420311
10504.472872	5203.210000	1977.726563	129.357834
10504.472872	5203.210000	1976.758789	-50.497494
10504.472872	5203.210000	1975.790039	23.854435
10504.472872	5203.210000	1974.821289	-3.052592
10504.472872	5203.210000	1973.852539	224.102905
10504.472872	5203.210000	1972.883789	103.322998
10504.472872	5203.210000	1971.915039	-7.599299
10504.472872	5203.210000	1970.945313	34.344059
10504.472872	5203.210000	1969.975586	105.807869
10504.472872	5203.210000	1969.005859	66.286095
10504.472872	5203.210000	1968.036133	149.954269
10504.472872	5203.210000	1967.066406	-2.980891
10504.472872	5203.210000	1966.096680	65.814194
10504.472872	5203.210000	1965.125977	-8.304450
10504.472872	5203.210000	1964.155273	146.588333
10504.472872	5203.210000	1963.184570	269.387451
10504.472872	5203.210000	1962.213867	-92.821838
10504.472872	5203.210000	1961.242188	84.069077
10504.472872	5203.210000	1960.271484	-108.231514
10504.472872	5203.210000	1959.299805	-10.173829
10504.472872	5203.210000	1958.328125	-79.435478
10504.472872	5203.210000	1957.356445	143.969864
10504.472872	5203.210000	1956.384766	-18.762541
10504.472872	5203.210000	1955.412109	7.848463
10504.472872	5203.210000	1954.439453	-31.926657
10504.472872	5203.210000	1953.467773	36.435474
10504.472872	5203.210000	1952.495117	134.246719
10504.472872	5203.210000	1951.521484	-60.317490
10504.472872	5203.210000	1950.548828	211.850204
10504.472872	5203.210000	1949.575195	-2.309614
10504.472872	5203.210000	1948.601563	164.165619
10504.472872	5203.210000	1947.627930	16.372023
10504.472872	5203.210000	1946.654297	131.242569
10504.472872	5203.210000	1945.680664	-95.009552
10504.472872	5203.210000	1944.706055	257.821808
10504.472872	5203.210000	1943.732422	-76.290146
10504.472872	5203.210000	1942.757813	143.984497
10504.472872	5203.210000	1941.783203	72.394051
10504.472872	5203.210000	1940.807617	27.805637
10504.472872	5203.210000	1939.833008	83.738113
10504.472872	5203.210000	1938.857422	36.733177
10504.472872	5203.210000	1937.881836	-12.694457
10504.472872	5203.210000	1936.906250	38.346695
10504.472872	5203.210000	1935.930664	42.845726
10504.472872	5203.210000	1934.955078	5.726269
10504.472872	5203.210000	1933.978516	176.744858
10504.472872	5203.210000	1933.001953	288.964752
10504.472872	5203.210000	1932.025391	95.227455
10504.472872	5203.210000	1931.048828	60.633160
10504.472872	5203.210000	1930.072266	87.232239
10504.472872	5203.210000	1929.094727	177.434448
10504.472872	5203.210000	1928.118164	152.678711
10504.472872	5203.210000	1927.140625	5.691143
10504.472872	5203.210000	1926.163086	25.017065
10504.472872	5203.210000	1925.184570	22.355219
10504.472872	5203.210000	1924.207031	156.568039
10504.472872	5203.210000	1923.228516	131.932480
10504.472872	5203.210000	1922.250000	-46.575726
10504.472872	5203.210000	1921.271484	65.652084
10504.472872	5203.210000	1920.292969	-100.526466
10504.472872	5203.210000	1919.314453	-137.221527
10504.472872	5203.210000	1918.334961	-39.624096
10504.472872	5203.210000	1917.355469	189.751083
10504.472872	5203.210000	1916.375977	-32.366405
10504.472872	5203.210000	1915.396484	45.702217
10504.472872	5203.210000	1914.416992	28.633743
10504.472872	5203.210000	1913.436523	101.826996
10504.472872	5203.210000	1912.457031	23.837858
10504.472872	5203.210000	1911.476563	-46.787037
10504.472872	5203.210000	1910.496094	-27.180952
10504.472872	5203.210000	1909.515625	43.616951
10504.472872	5203.210000	1908.534180	-107.314842
10504.472872	5203.210000	1907.552734	46.338509
10504.472872	5203.210000	1906.572266	117.144661
10504.472872	5203.210000	1905.590820	54.011688
10504.472872	5203.210000	1904.608398	98.048798
10504.472872	5203.210000	1903.626953	25.246822
10504.472872	5203.210000	1902.644531	3.601775
10504.472872	5203.210000	1901.663086	30.650261
10504.472872	5203.210000	1900.680664	96.633446
10504.472872	5203.210000	1899.698242	40.990826
10504.472872	5203.210000	1898.714844	-51.092690
10504.472872	5203.210000	1897.732422	-16.684248
10504.472872	5203.210000	1896.749023	-123.271118
10504.472872	5203.210000	1895.765625	3.535254
10504.472872	5203.210000	1894.782227	-15.496017
10504.472872	5203.210000	1893.798828	4.370962
10504.472872	5203.210000	1892.814453	-131.223816
10504.472872	5203.210000	1891.831055	-77.306824
10504.472872	5203.210000	1890.846680	-98.673798
10504.472872	5203.210000	1889.862305	-132.156128
10504.472872	5203.210000	1888.877930	-10.257236
10504.472872	5203.210000	1887.892578	-75.266846
10504.472872	5203.210000	1886.908203	56.308884
10504.472872	5203.210000	1885.922852	37.433048
10504.472872	5203.210000	1884.937500	137.430389
10504.472872	5203.210000	1883.952148	-68.165512
10504.472872	5203.210000	1882.965820	-150.014450
10504.472872	5203.210000	1881.980469	44.540264
10504.472872	5203.210000	1880.994141	-153.620209
10504.472872	5203.210000	1880.007813	103.888290
10504.472872	5203.210000	1879.021484	-2.122358
10504.472872	5203.210000	1878.035156	-83.860825
10504.472872	5203.210000	1877.047852	-114.700806
10504.472872	5203.210000	1876.061523	191.068924
10504.472872	5203.210000	1875.074219	-161.799347
10504.472872	5203.210000	1874.086914	-13.463541
10504.472872	5203.210000	1873.098633	-131.396011
10504.472872	5203.210000	1872.111328	53.181767
10504.472872	5203.210000	1871.123047	-11.487669
10504.472872	5203.210000	1870.135742	-122.088715
10504.472872	5203.210000	1869.147461	-31.923773
10504.472872	5203.210000	1868.158203	50.954674
10504.472872	5203.210000	1867.169922	39.522362
10504.472872	5203.210000	1866.180664	18.426098
10504.472872	5203.210000	1865.192383	-14.746092
10504.472872	5203.210000	1864.203125	-122.806396
10504.472872	5203.210000	1863.213867	92.864502
10504.472872	5203.210000	1862.223633	-90.051521
10504.472872	5203.210000	1861.234375	-111.116814
10504.472872	5203.210000	1860.244141	-64.581108
10504.472872	5203.210000	1859.253906	59.173920
10504.472872	5203.210000	1858.263672	199.769562
10504.472872	5203.210000	1857.273438	7.324188
10504.472872	5203.210000	1856.282227	-187.469635
10504.472872	5203.210000	1855.291992	35.076756
10504.472872	5203.210000	1854.300781	98.366867
10504.472872	5203.210000	1853.309570	123.045410
10504.472872	5203.210000	1852.317383	68.152573
10504.472872	5203.210000	1851.326172	75.933723
10504.472872	5203.210000	1850.333984	30.683884
10504.472872	5203.210000	1849.342773	93.855499
10504.472872	5203.210000	1848.350586	17.275759
10504.472872	5203.210000	1847.357422	167.097153
10504.472872	5203.210000	1846.365234	-20.261978
10504.472872	5203.210000	1845.372070	-176.271393
10504.472872	5203.210000	1844.379883	-48.211903
10504.472872	5203.210000	1843.386719	7.583380
10504.472872	5203.210000	1842.393555	-37.718227
10504.472872	5203.210000	1841.399414	34.853962
10504.472872	5203.210000	1840.406250	1.549559
10504.472872	5203.210000	1839.412109	4.306793
10504.472872	5203.210000	1838.417969	16.657320
10504.472872	5203.210000	1837.423828	16.960714
10504.472872	5203.210000	1836.429688	132.602921
10504.472872	5203.210000	1835.434570	99.194145
10504.472872	5203.210000	1834.440430	77.784088
10504.472872	5203.210000	1833.445313	29.933779
10504.472872	5203.210000	1832.450195	289.475800
10504.472872	5203.210000	1831.454102	8.638430
10504.472872	5203.210000	1830.458984	102.382729
10504.472872	5203.210000	1829.462891	20.846672
10504.472872	5203.210000	1828.466797	20.902025
10504.472872	5203.210000	1827.470703	-22.261524
10504.472872	5203.210000	1826.474609	30.514471
10504.472872	5203.210000	1825.478516	95.229279
10504.472872	5203.210000	1824.481445	-3.175138
10504.472872	5203.210000	1823.484375	-72.806320
10504.472872	5203.210000	1822.487305	8.567446
10504.472872	5203.210000	1821.490234	-13.178586
10504.472872	5203.210000	1820.493164	53.703907
10504.472872	5203.210000	1819.495117	0.739763
10504.472872	5203.210000	1818.498047	105.843979
10504.472872	5203.210000	1817.500000	-138.770981
10504.472872	5203.210000	1816.500977	83.563011
10504.472872	5203.210000	1815.502930	114.263184
10504.472872	5203.210000	1814.504883	195.172668
10504.472872	5203.210000	1813.505859	287.974304
10504.472872	5203.210000	1812.506836	167.764160
10504.472872	5203.210000	1811.507813	212.608948
10504.472872	5203.210000	1810.508789	8.664281
10504.472872	5203.210000	1809.508789	151.473221
10504.472872	5203.210000	1808.508789	67.062668
10504.472872	5203.210000	1807.508789	6.542341
10504.472872	5203.210000	1806.508789	273.404816
10504.472872	5203.210000	1805.508789	107.643600
10504.472872	5203.210000	1804.508789	197.512039
10504.472872	5203.210000	1803.507813	-78.139420
10504.472872	5203.210000	1802.506836	281.478149
10504.472872	5203.210000	1801.505859	110.870995
10504.472872	5203.210000	1800.504883	85.893066
10504.472872	5203.210000	1799.502930	134.858536
10504.472872	5203.210000	1798.501953	105.011383
10504.472872	5203.210000	1797.500000	65.579109
10504.472872	5203.210000	1796.498047	126.293343
10504.472872	5203.210000	1795.496094	65.303955
10504.472872	5203.210000	1794.493164	97.273552
10504.472872	5203.210000	1793.491211	29.054085
10504.472872	5203.210000	1792.488281	101.431183
10504.472872	5203.210000	1791.485352	73.637756
10504.472872	5203.210000	1790.482422	10.060040
10504.472872	5203.210000	1789.478516	279.950287
10504.472872	5203.210000	1788.475586	80.489098
10504.472872	5203.210000	1787.471680	57.257568
10504.472872	5203.210000	1786.467773	200.632446
10504.472872	5203.210000	1785.463867	34.451206
10504.472872	5203.210000	1784.459961	127.683159
10504.472872	5203.210000	1783.455078	28.084166
10504.472872	5203.210000	1782.450195	382.850586
10504.472872	5203.210000	1781.445313	126.138298
10504.472872	5203.210000	1780.440430	57.332657
10504.472872	5203.210000	1779.435547	57.445030
10504.472872	5203.210000	1778.429688	67.001549
10504.472872	5203.210000	1777.424805	188.203720
10504.472872	5203.210000	1776.418945	190.481094
10504.472872	5203.210000	1775.413086	-128.040802
10504.472872	5203.210000	1774.406250	-61.696365
10504.472872	5203.210000	1773.400391	125.686127
10504.472872	5203.210000	1772.393555	203.704742
10504.472872	5203.210000	1771.386719	60.846622
10504.472872	5203.210000	1770.379883	110.238441
10504.472872	5203.210000	1769.373047	135.816483
10504.472872	5203.210000	1768.365234	-213.565506
10504.472872	5203.210000	1767.358398	-24.379524
10504.472872	5203.210000	1766.350586	121.973785
10504.472872	5203.210000	1765.342773	111.698784
10504.472872	5203.210000	1764.334961	75.283531
10504.472872	5203.210000	1763.326172	71.999527
10504.472872	5203.210000	1762.318359	104.203545
10504.472872	5203.210000	1761.309570	235.845947
10504.472872	5203.210000	1760.300781	163.632416
10504.472872	5203.210000	1759.291016	-12.843496
10504.472872	5203.210000	1758.282227	201.432755
10504.472872	5203.210000	1757.272461	48.561455
10504.472872	5203.210000	1756.262695	94.531792
10504.472872	5203.210000	1755.252930	-63.128994
10504.472872	5203.210000	1754.243164	39.503792
10504.472872	5203.210000	1753.233398	198.811905
10504.472872	5203.210000	1752.222656	159.288910
10504.472872	5203.210000	1751.211914	-57.663532
10504.472872	5203.210000	1750.201172	28.063904
10504.472872	5203.210000	1749.190430	-80.165558
10504.472872	5203.210000	1748.179688	-136.422256
10504.472872	5203.210000	1747.167969	-107.653320
10504.472872	5203.210000	1746.156250	178.576492
10504.472872	5203.210000	1745.144531	-29.092213
10504.472872	5203.210000	1744.132813	18.329838
10504.472872	5203.210000	1743.121094	-5.175900
10504.472872	5203.210000	1742.108398	129.438309
10504.472872	5203.210000	1741.095703	197.838547
10504.472872	5203.210000	1740.083008	44.299255
10504.472872	5203.210000	1739.070313	-66.777161
10504.472872	5203.210000	1738.057617	-22.173828
10504.472872	5203.210000	1737.043945	-74.368675
10504.472872	5203.210000	1736.030273	-11.056583
10504.472872	5203.210000	1735.016602	-141.176926
10504.472872	5203.210000	1734.002930	-4.934649
10504.472872	5203.210000	1732.989258	-132.784729
10504.472872	5203.210000	1731.974609	-79.213158
10504.472872	5203.210000	1730.959961	-32.797264
10504.472872	5203.210000	1729.945313	-184.333786
10504.472872	5203.210000	1728.930664	31.516302
10504.472872	5203.210000	1727.916016	-42.405025
10504.472872	5203.210000	1726.900391	144.944290
10504.472872	5203.210000	1725.885742	-4.425640
10504.472872	5203.210000	1724.870117	-210.290283
10504.472872	5203.210000	1723.853516	-67.926964
10504.472872	5203.210000	1722.837891	-55.060524
10504.472872	5203.210000	1721.822266	-32.857967
10504.472872	5203.210000	1720.805664	160.923645
10504.472872	5203.210000	1719.789063	117.108154
10504.472872	5203.210000	1718.772461	-166.518066
10504.472872	5203.210000	1717.754883	17.572947
10504.472872	5203.210000	1716.738281	46.453976
10504.472872	5203.210000	1715.720703	117.538994
10504.472872	5203.210000	1714.703125	59.347492
10504.472872	5203.210000	1713.685547	31.642481
10504.472872	5203.210000	1712.667969	123.626411
10504.472872	5203.210000	1711.649414	44.140408
10504.472872	5203.210000	1710.630859	-58.850449
10504.472872	5203.210000	1709.612305	239.397339
10504.472872	5203.210000	1708.593750	0.208350
10504.472872	5203.210000	1707.575195	49.563400
10504.472872	5203.210000	1706.555664	-4.358737
10504.472872	5203.210000	1705.536133	-152.112183
10504.472872	5203.210000	1704.516602	-138.114517
10504.472872	5203.210000	1703.497070	49.261612
10504.472872	5203.210000	1702.477539	-49.391613
10504.472872	5203.210000	1701.457031	8.903176
10504.472872	5203.210000	1700.437500	-19.549749
10504.472872	5203.210000	1699.416992	83.095490
10504.472872	5203.210000	1698.395508	-1.695017
10504.472872	5203.210000	1697.375000	-6.904733
10504.472872	5203.210000	1696.354492	-30.897186
10504.472872	5203.210000	1695.333008	-33.884735
10504.472872	5203.210000	1694.311523	-67.346588
10504.472872	5203.210000	1693.290039	-217.821320
10504.472872	5203.210000	1692.267578	33.989300
10504.472872	5203.210000	1691.246094	26.084915
10504.472872	5203.210000	1690.223633	106.963852
10504.472872	5203.210000	1689.201172	-132.490494
10504.472872	5203.210000	1688.178711	-40.038353
10504.472872	5203.210000	1687.155273	101.385902
10504.472872	5203.210000	1686.132813	-7.266405
10504.472872	5203.210000	1685.109375	-80.901695
10504.472872	5203.210000	1684.085938	163.039505
10504.472872	5203.210000	1683.062500	58.939571
10504.472872	5203.210000	1682.039063	-26.496838
10504.472872	5203.210000	1681.014648	-44.276608
10504.472872	5203.210000	1679.990234	75.576935
10504.472872	5203.210000	1678.965820	6.355390
10504.472872	5203.210000	1677.941406	135.381592
10504.472872	5203.210000	1676.916992	101.057510
10504.472872	5203.210000	1675.891602	-3.263584
10504.472872	5203.210000	1674.866211	181.485092
10504.472872	5203.210000	1673.840820	21.152765
10504.472872	5203.210000	1672.815430	84.550613
10504.472872	5203.210000	1671.790039	208.454636
10504.472872	5203.210000	1670.763672	171.521652
10504.472872	5203.210000	1669.737305	157.847977
10504.472872	5203.210000	1668.710938	193.034836
10504.472872	5203.210000	1667.684570	188.584824
10504.472872	5203.210000	1666.658203	65.381401
10504.472872	5203.210000	1665.630859	330.820465
10504.472872	5203.210000	1664.603516	249.424377
10504.472872	5203.210000	1663.576172	247.111740
10504.472872	5203.210000	1662.548828	191.265060
10504.472872	5203.210000	1661.520508	244.684433
10504.472872	5203.210000	1660.493164	186.452347
10504.472872	5203.210000	1659.464844	58.459290
10504.472872	5203.210000	1658.436523	21.116499
10504.472872	5203.210000	1657.408203	278.850464
10504.472872	5203.210000	1656.378906	399.370300
10504.472872	5203.210000	1655.350586	426.906281
10504.472872	5203.210000	1654.321289	319.694366
10504.472872	5203.210000	1653.291992	344.833435
10504.472872	5203.210000	1652.261719	427.952454
10504.472872	5203.210000	1651.232422	378.721405
10504.472872	5203.210000	1650.202148	403.722717
10504.472872	5203.210000	1649.171875	593.403992
10504.472872	5203.210000	1648.141602	692.516052
10504.472872	5203.210000	1647.111328	837.941406
10504.472872	5203.210000	1646.080078	848.786438
10504.472872	5203.210000	1645.049805	537.370850
10504.472872	5203.210000	1644.018555	647.876465
10504.472872	5203.210000	1642.987305	767.579163
10504.472872	5203.210000	1641.955078	757.453430
10504.472872	5203.210000	1640.923828	860.819214
10504.472872	5203.210000	1639.891602	818.201782
10504.472872	5203.210000	1638.859375	909.877197
10504.472872	5203.210000	1637.827148	881.107056
10504.472872	5203.210000	1636.794922	1051.384277
10504.472872	5203.210000	1635.761719	1066.511353
10504.472872	5203.210000	1634.729492	1109.384521
10504.472872	5203.210000	1633.696289	890.806458
10504.472872	5203.210000	1632.662109	1213.490601
10504.472872	5203.210000	1631.628906	1219.239624
10504.472872	5203.210000	1630.594727	1201.837524
10504.472872	5203.210000	1629.561523	1306.943237
10504.472872	5203.210000	1628.527344	1222.474609
10504.472872	5203.210000	1627.493164	1235.066040
10504.472872	5203.210000	1626.458008	1282.279907
10504.472872	5203.210000	1625.423828	1435.716919
10504.472872	5203.210000	1624.388672	1489.770874
10504.472872	5203.210000	1623.353516	1476.834595
10504.472872	5203.210000	1622.318359	1438.497559
10504.472872	5203.210000	1621.282227	1446.312256
10504.472872	5203.210000	1620.247070	1119.538574
10504.472872	5203.210000	1619.210938	1300.416260
10504.472872	5203.210000	1618.174805	1190.585938
10504.472872	5203.210000	1617.137695	1253.738525
10504.472872	5203.210000	1616.101563	1102.439941
10504.472872	5203.210000	1615.064453	1239.336792
10504.472872	5203.210000	1614.027344	1005.104065
10504.472872	5203.210000	1612.990234	1010.606750
10504.472872	5203.210000	1611.953125	949.290100
10504.472872	5203.210000	1610.916016	1383.230103
10504.472872	5203.210000	1609.877930	1121.487793
10504.472872	5203.210000	1608.839844	1242.065308
10504.472872	5203.210000	1607.801758	1104.760254
10504.472872	5203.210000	1606.763672	1133.225830
10504.472872	5203.210000	1605.724609	1173.175415
10504.472872	5203.210000	1604.685547	1194.704956
10504.472872	5203.210000	1603.646484	1135.716431
10504.472872	5203.210000	1602.607422	1297.538940
10504.472872	5203.210000	1601.568359	1210.966187
10504.472872	5203.210000	1600.528320	1168.101440
10504.472872	5203.210000	1599.489258	1258.580444
10504.472872	5203.210000	1598.449219	1351.317871
10504.472872	5203.210000	1597.408203	1246.422974
10504.472872	5203.210000	1596.368164	1063.481689
10504.472872	5203.210000	1595.327148	1349.137207
10504.472872	5203.210000	1594.287109	1356.853516
10504.472872	5203.210000	1593.246094	1314.058838
10504.472872	5203.210000	1592.204102	1204.716064
10504.472872	5203.210000	1591.163086	1269.850464
10504.472872	5203.210000	1590.121094	1192.703979
10504.472872	5203.210000	1589.079102	1308.297852
10504.472872	5203.210000	1588.037109	1139.459229
10504.472872	5203.210000	1586.995117	1202.305054
10504.472872	5203.210000	1585.953125	1084.020630
10504.472872	5203.210000	1584.910156	1036.847168
10504.472872	5203.210000	1583.867188	1120.340942
10504.472872	5203.210000	1582.824219	995.308533
