#X		#Y		#Wave		#Intensity
-15659.552660	5516.615000	1999.946289	67.148300
-15659.552660	5516.615000	1998.981445	-14.961812
-15659.552660	5516.615000	1998.017578	-11.274083
-15659.552660	5516.615000	1997.052734	-42.270050
-15659.552660	5516.615000	1996.088867	6.042075
-15659.552660	5516.615000	1995.124023	-128.965652
-15659.552660	5516.615000	1994.159180	65.492233
-15659.552660	5516.615000	1993.193359	153.407745
-15659.552660	5516.615000	1992.228516	-1.329440
-15659.552660	5516.615000	1991.262695	69.256874
-15659.552660	5516.615000	1990.296875	8.655756
-15659.552660	5516.615000	1989.331055	-19.746960
-15659.552660	5516.615000	1988.365234	-48.131351
-15659.552660	5516.615000	1987.398438	79.333557
-15659.552660	5516.615000	1986.432617	23.752249
-15659.552660	5516.615000	1985.465820	91.827629
-15659.552660	5516.615000	1984.499023	43.693787
-15659.552660	5516.615000	1983.532227	69.734169
-15659.552660	5516.615000	1982.565430	-82.158012
-15659.552660	5516.615000	1981.597656	50.149574
-15659.552660	5516.615000	1980.629883	-121.434547
-15659.552660	5516.615000	1979.662109	30.599562
-15659.552660	5516.615000	1978.694336	-86.581909
-15659.552660	5516.615000	1977.726563	33.301983
-15659.552660	5516.615000	1976.758789	-54.207058
-15659.552660	5516.615000	1975.790039	-15.811594
-15659.552660	5516.615000	1974.821289	-172.363831
-15659.552660	5516.615000	1973.852539	36.275112
-15659.552660	5516.615000	1972.883789	22.841784
-15659.552660	5516.615000	1971.915039	98.198715
-15659.552660	5516.615000	1970.945313	23.119951
-15659.552660	5516.615000	1969.975586	100.917862
-15659.552660	5516.615000	1969.005859	141.716217
-15659.552660	5516.615000	1968.036133	76.533813
-15659.552660	5516.615000	1967.066406	8.912419
-15659.552660	5516.615000	1966.096680	106.367920
-15659.552660	5516.615000	1965.125977	-32.658604
-15659.552660	5516.615000	1964.155273	-6.643830
-15659.552660	5516.615000	1963.184570	29.209391
-15659.552660	5516.615000	1962.213867	163.514130
-15659.552660	5516.615000	1961.242188	137.793533
-15659.552660	5516.615000	1960.271484	11.194552
-15659.552660	5516.615000	1959.299805	-71.074196
-15659.552660	5516.615000	1958.328125	41.009151
-15659.552660	5516.615000	1957.356445	30.084070
-15659.552660	5516.615000	1956.384766	-39.850601
-15659.552660	5516.615000	1955.412109	67.243927
-15659.552660	5516.615000	1954.439453	-66.581154
-15659.552660	5516.615000	1953.467773	20.816181
-15659.552660	5516.615000	1952.495117	157.319839
-15659.552660	5516.615000	1951.521484	53.025864
-15659.552660	5516.615000	1950.548828	-2.108683
-15659.552660	5516.615000	1949.575195	-0.744800
-15659.552660	5516.615000	1948.601563	143.017853
-15659.552660	5516.615000	1947.627930	-12.754453
-15659.552660	5516.615000	1946.654297	69.594376
-15659.552660	5516.615000	1945.680664	102.833252
-15659.552660	5516.615000	1944.706055	150.776855
-15659.552660	5516.615000	1943.732422	-127.539055
-15659.552660	5516.615000	1942.757813	-28.075312
-15659.552660	5516.615000	1941.783203	39.472279
-15659.552660	5516.615000	1940.807617	48.153759
-15659.552660	5516.615000	1939.833008	12.709003
-15659.552660	5516.615000	1938.857422	72.848083
-15659.552660	5516.615000	1937.881836	66.806358
-15659.552660	5516.615000	1936.906250	107.307358
-15659.552660	5516.615000	1935.930664	101.252815
-15659.552660	5516.615000	1934.955078	75.606499
-15659.552660	5516.615000	1933.978516	152.795868
-15659.552660	5516.615000	1933.001953	190.785324
-15659.552660	5516.615000	1932.025391	-62.489185
-15659.552660	5516.615000	1931.048828	-75.869576
-15659.552660	5516.615000	1930.072266	-67.230942
-15659.552660	5516.615000	1929.094727	41.689137
-15659.552660	5516.615000	1928.118164	204.367004
-15659.552660	5516.615000	1927.140625	144.469177
-15659.552660	5516.615000	1926.163086	113.924950
-15659.552660	5516.615000	1925.184570	-63.268394
-15659.552660	5516.615000	1924.207031	-49.784882
-15659.552660	5516.615000	1923.228516	-38.754879
-15659.552660	5516.615000	1922.250000	-79.035698
-15659.552660	5516.615000	1921.271484	61.433136
-15659.552660	5516.615000	1920.292969	57.767250
-15659.552660	5516.615000	1919.314453	0.384051
-15659.552660	5516.615000	1918.334961	28.452656
-15659.552660	5516.615000	1917.355469	49.183662
-15659.552660	5516.615000	1916.375977	128.464203
-15659.552660	5516.615000	1915.396484	-107.011963
-15659.552660	5516.615000	1914.416992	-22.865503
-15659.552660	5516.615000	1913.436523	-77.767654
-15659.552660	5516.615000	1912.457031	-13.177445
-15659.552660	5516.615000	1911.476563	51.382061
-15659.552660	5516.615000	1910.496094	-88.832108
-15659.552660	5516.615000	1909.515625	78.056938
-15659.552660	5516.615000	1908.534180	59.701664
-15659.552660	5516.615000	1907.552734	-9.810318
-15659.552660	5516.615000	1906.572266	-13.541265
-15659.552660	5516.615000	1905.590820	28.989595
-15659.552660	5516.615000	1904.608398	-47.802784
-15659.552660	5516.615000	1903.626953	-105.098991
-15659.552660	5516.615000	1902.644531	61.526543
-15659.552660	5516.615000	1901.663086	16.383490
-15659.552660	5516.615000	1900.680664	39.370525
-15659.552660	5516.615000	1899.698242	-137.116562
-15659.552660	5516.615000	1898.714844	107.183990
-15659.552660	5516.615000	1897.732422	-139.778412
-15659.552660	5516.615000	1896.749023	16.898752
-15659.552660	5516.615000	1895.765625	166.217743
-15659.552660	5516.615000	1894.782227	36.007099
-15659.552660	5516.615000	1893.798828	-30.991037
-15659.552660	5516.615000	1892.814453	-63.962681
-15659.552660	5516.615000	1891.831055	65.798958
-15659.552660	5516.615000	1890.846680	-13.332470
-15659.552660	5516.615000	1889.862305	-85.158386
-15659.552660	5516.615000	1888.877930	68.784042
-15659.552660	5516.615000	1887.892578	193.537292
-15659.552660	5516.615000	1886.908203	-48.166878
-15659.552660	5516.615000	1885.922852	-18.071100
-15659.552660	5516.615000	1884.937500	67.794243
-15659.552660	5516.615000	1883.952148	34.786518
-15659.552660	5516.615000	1882.965820	164.236725
-15659.552660	5516.615000	1881.980469	174.843033
-15659.552660	5516.615000	1880.994141	117.570732
-15659.552660	5516.615000	1880.007813	45.770809
-15659.552660	5516.615000	1879.021484	-52.662243
-15659.552660	5516.615000	1878.035156	40.304230
-15659.552660	5516.615000	1877.047852	46.035854
-15659.552660	5516.615000	1876.061523	59.021416
-15659.552660	5516.615000	1875.074219	74.413605
-15659.552660	5516.615000	1874.086914	-99.016113
-15659.552660	5516.615000	1873.098633	8.347852
-15659.552660	5516.615000	1872.111328	-97.270782
-15659.552660	5516.615000	1871.123047	94.707375
-15659.552660	5516.615000	1870.135742	56.820019
-15659.552660	5516.615000	1869.147461	120.507347
-15659.552660	5516.615000	1868.158203	48.759018
-15659.552660	5516.615000	1867.169922	-37.475578
-15659.552660	5516.615000	1866.180664	1.995157
-15659.552660	5516.615000	1865.192383	10.027381
-15659.552660	5516.615000	1864.203125	-20.611170
-15659.552660	5516.615000	1863.213867	26.052237
-15659.552660	5516.615000	1862.223633	58.196579
-15659.552660	5516.615000	1861.234375	90.320175
-15659.552660	5516.615000	1860.244141	71.721451
-15659.552660	5516.615000	1859.253906	53.120247
-15659.552660	5516.615000	1858.263672	46.582424
-15659.552660	5516.615000	1857.273438	30.385759
-15659.552660	5516.615000	1856.282227	-67.839165
-15659.552660	5516.615000	1855.291992	92.047188
-15659.552660	5516.615000	1854.300781	167.458374
-15659.552660	5516.615000	1853.309570	-32.033169
-15659.552660	5516.615000	1852.317383	-16.914095
-15659.552660	5516.615000	1851.326172	31.932268
-15659.552660	5516.615000	1850.333984	18.095665
-15659.552660	5516.615000	1849.342773	-75.251045
-15659.552660	5516.615000	1848.350586	120.484283
-15659.552660	5516.615000	1847.357422	-81.245796
-15659.552660	5516.615000	1846.365234	27.711124
-15659.552660	5516.615000	1845.372070	-15.054816
-15659.552660	5516.615000	1844.379883	45.686466
-15659.552660	5516.615000	1843.386719	12.537766
-15659.552660	5516.615000	1842.393555	22.700523
-15659.552660	5516.615000	1841.399414	20.819336
-15659.552660	5516.615000	1840.406250	45.385601
-15659.552660	5516.615000	1839.412109	91.573318
-15659.552660	5516.615000	1838.417969	-69.036629
-15659.552660	5516.615000	1837.423828	169.439972
-15659.552660	5516.615000	1836.429688	138.636383
-15659.552660	5516.615000	1835.434570	-57.970837
-15659.552660	5516.615000	1834.440430	-4.656284
-15659.552660	5516.615000	1833.445313	53.430187
-15659.552660	5516.615000	1832.450195	-10.997667
-15659.552660	5516.615000	1831.454102	128.682190
-15659.552660	5516.615000	1830.458984	109.853928
-15659.552660	5516.615000	1829.462891	40.615185
-15659.552660	5516.615000	1828.466797	-103.001892
-15659.552660	5516.615000	1827.470703	-25.839634
-15659.552660	5516.615000	1826.474609	166.427094
-15659.552660	5516.615000	1825.478516	-89.893646
-15659.552660	5516.615000	1824.481445	-115.926979
-15659.552660	5516.615000	1823.484375	35.453060
-15659.552660	5516.615000	1822.487305	157.999359
-15659.552660	5516.615000	1821.490234	81.568779
-15659.552660	5516.615000	1820.493164	33.908848
-15659.552660	5516.615000	1819.495117	-28.121241
-15659.552660	5516.615000	1818.498047	60.761898
-15659.552660	5516.615000	1817.500000	-39.591457
-15659.552660	5516.615000	1816.500977	34.866459
-15659.552660	5516.615000	1815.502930	39.862465
-15659.552660	5516.615000	1814.504883	126.220093
-15659.552660	5516.615000	1813.505859	64.166641
-15659.552660	5516.615000	1812.506836	160.030838
-15659.552660	5516.615000	1811.507813	-55.124859
-15659.552660	5516.615000	1810.508789	90.924110
-15659.552660	5516.615000	1809.508789	229.730179
-15659.552660	5516.615000	1808.508789	-9.264561
-15659.552660	5516.615000	1807.508789	-121.497192
-15659.552660	5516.615000	1806.508789	182.129410
-15659.552660	5516.615000	1805.508789	19.699678
-15659.552660	5516.615000	1804.508789	-42.346985
-15659.552660	5516.615000	1803.507813	127.296684
-15659.552660	5516.615000	1802.506836	74.777405
-15659.552660	5516.615000	1801.505859	93.891045
-15659.552660	5516.615000	1800.504883	-135.275543
-15659.552660	5516.615000	1799.502930	29.429110
-15659.552660	5516.615000	1798.501953	98.610641
-15659.552660	5516.615000	1797.500000	29.376671
-15659.552660	5516.615000	1796.498047	-44.615250
-15659.552660	5516.615000	1795.496094	84.120186
-15659.552660	5516.615000	1794.493164	-4.189450
-15659.552660	5516.615000	1793.491211	-104.397865
-15659.552660	5516.615000	1792.488281	2.781158
-15659.552660	5516.615000	1791.485352	59.861671
-15659.552660	5516.615000	1790.482422	74.019913
-15659.552660	5516.615000	1789.478516	45.278301
-15659.552660	5516.615000	1788.475586	-40.625904
-15659.552660	5516.615000	1787.471680	25.886835
-15659.552660	5516.615000	1786.467773	-38.583416
-15659.552660	5516.615000	1785.463867	37.396900
-15659.552660	5516.615000	1784.459961	72.875603
-15659.552660	5516.615000	1783.455078	-112.962845
-15659.552660	5516.615000	1782.450195	-58.467056
-15659.552660	5516.615000	1781.445313	50.699848
-15659.552660	5516.615000	1780.440430	62.309322
-15659.552660	5516.615000	1779.435547	-87.779282
-15659.552660	5516.615000	1778.429688	-64.292709
-15659.552660	5516.615000	1777.424805	73.255623
-15659.552660	5516.615000	1776.418945	44.395664
-15659.552660	5516.615000	1775.413086	-29.609289
-15659.552660	5516.615000	1774.406250	-25.214537
-15659.552660	5516.615000	1773.400391	-35.083786
-15659.552660	5516.615000	1772.393555	40.515446
-15659.552660	5516.615000	1771.386719	35.353844
-15659.552660	5516.615000	1770.379883	-48.148209
-15659.552660	5516.615000	1769.373047	51.097160
-15659.552660	5516.615000	1768.365234	-3.935733
-15659.552660	5516.615000	1767.358398	95.234100
-15659.552660	5516.615000	1766.350586	30.696898
-15659.552660	5516.615000	1765.342773	-64.657921
-15659.552660	5516.615000	1764.334961	29.678421
-15659.552660	5516.615000	1763.326172	17.292965
-15659.552660	5516.615000	1762.318359	116.287445
-15659.552660	5516.615000	1761.309570	46.992210
-15659.552660	5516.615000	1760.300781	70.101433
-15659.552660	5516.615000	1759.291016	-202.892609
-15659.552660	5516.615000	1758.282227	-111.097557
-15659.552660	5516.615000	1757.272461	-12.251512
-15659.552660	5516.615000	1756.262695	-34.189053
-15659.552660	5516.615000	1755.252930	-67.967316
-15659.552660	5516.615000	1754.243164	68.630493
-15659.552660	5516.615000	1753.233398	49.010628
-15659.552660	5516.615000	1752.222656	83.786842
-15659.552660	5516.615000	1751.211914	-106.141953
-15659.552660	5516.615000	1750.201172	56.306763
-15659.552660	5516.615000	1749.190430	-74.471992
-15659.552660	5516.615000	1748.179688	-53.941597
-15659.552660	5516.615000	1747.167969	-73.610901
-15659.552660	5516.615000	1746.156250	-50.758175
-15659.552660	5516.615000	1745.144531	24.041388
-15659.552660	5516.615000	1744.132813	-40.552528
-15659.552660	5516.615000	1743.121094	12.933224
-15659.552660	5516.615000	1742.108398	52.215317
-15659.552660	5516.615000	1741.095703	-161.107010
-15659.552660	5516.615000	1740.083008	36.287075
-15659.552660	5516.615000	1739.070313	61.338974
-15659.552660	5516.615000	1738.057617	50.978889
-15659.552660	5516.615000	1737.043945	78.344810
-15659.552660	5516.615000	1736.030273	25.503839
-15659.552660	5516.615000	1735.016602	-27.331610
-15659.552660	5516.615000	1734.002930	-30.658094
-15659.552660	5516.615000	1732.989258	-95.277840
-15659.552660	5516.615000	1731.974609	-42.067551
-15659.552660	5516.615000	1730.959961	4.038953
-15659.552660	5516.615000	1729.945313	-34.686810
-15659.552660	5516.615000	1728.930664	-23.955753
-15659.552660	5516.615000	1727.916016	-25.017839
-15659.552660	5516.615000	1726.900391	-94.368011
-15659.552660	5516.615000	1725.885742	-15.418167
-15659.552660	5516.615000	1724.870117	136.436508
-15659.552660	5516.615000	1723.853516	-45.889935
-15659.552660	5516.615000	1722.837891	-4.680392
-15659.552660	5516.615000	1721.822266	50.609722
-15659.552660	5516.615000	1720.805664	9.450249
-15659.552660	5516.615000	1719.789063	109.354317
-15659.552660	5516.615000	1718.772461	32.910347
-15659.552660	5516.615000	1717.754883	34.032963
-15659.552660	5516.615000	1716.738281	-32.998070
-15659.552660	5516.615000	1715.720703	-10.749554
-15659.552660	5516.615000	1714.703125	-23.755650
-15659.552660	5516.615000	1713.685547	-198.808792
-15659.552660	5516.615000	1712.667969	4.203882
-15659.552660	5516.615000	1711.649414	-58.140980
-15659.552660	5516.615000	1710.630859	-52.413601
-15659.552660	5516.615000	1709.612305	-58.435223
-15659.552660	5516.615000	1708.593750	-12.855189
-15659.552660	5516.615000	1707.575195	-58.787216
-15659.552660	5516.615000	1706.555664	68.826263
-15659.552660	5516.615000	1705.536133	-35.753857
-15659.552660	5516.615000	1704.516602	-62.946457
-15659.552660	5516.615000	1703.497070	15.331052
-15659.552660	5516.615000	1702.477539	-70.474487
-15659.552660	5516.615000	1701.457031	80.375099
-15659.552660	5516.615000	1700.437500	71.865082
-15659.552660	5516.615000	1699.416992	246.022034
-15659.552660	5516.615000	1698.395508	-1.394240
-15659.552660	5516.615000	1697.375000	-23.975060
-15659.552660	5516.615000	1696.354492	70.474281
-15659.552660	5516.615000	1695.333008	19.774910
-15659.552660	5516.615000	1694.311523	65.013550
-15659.552660	5516.615000	1693.290039	100.863617
-15659.552660	5516.615000	1692.267578	-3.650656
-15659.552660	5516.615000	1691.246094	191.187668
-15659.552660	5516.615000	1690.223633	4.839026
-15659.552660	5516.615000	1689.201172	49.967381
-15659.552660	5516.615000	1688.178711	-19.453554
-15659.552660	5516.615000	1687.155273	-18.763374
-15659.552660	5516.615000	1686.132813	112.743752
-15659.552660	5516.615000	1685.109375	76.010101
-15659.552660	5516.615000	1684.085938	67.301247
-15659.552660	5516.615000	1683.062500	189.335541
-15659.552660	5516.615000	1682.039063	115.219055
-15659.552660	5516.615000	1681.014648	17.776190
-15659.552660	5516.615000	1679.990234	121.040627
-15659.552660	5516.615000	1678.965820	133.263443
-15659.552660	5516.615000	1677.941406	124.475517
-15659.552660	5516.615000	1676.916992	59.707222
-15659.552660	5516.615000	1675.891602	134.851288
-15659.552660	5516.615000	1674.866211	-48.815880
-15659.552660	5516.615000	1673.840820	84.567169
-15659.552660	5516.615000	1672.815430	31.457092
-15659.552660	5516.615000	1671.790039	94.852051
-15659.552660	5516.615000	1670.763672	-11.843071
-15659.552660	5516.615000	1669.737305	142.341568
-15659.552660	5516.615000	1668.710938	159.069656
-15659.552660	5516.615000	1667.684570	33.764668
-15659.552660	5516.615000	1666.658203	124.970657
-15659.552660	5516.615000	1665.630859	111.402046
-15659.552660	5516.615000	1664.603516	221.146896
-15659.552660	5516.615000	1663.576172	-13.457757
-15659.552660	5516.615000	1662.548828	79.966637
-15659.552660	5516.615000	1661.520508	8.235543
-15659.552660	5516.615000	1660.493164	87.648582
-15659.552660	5516.615000	1659.464844	22.896620
-15659.552660	5516.615000	1658.436523	132.465714
-15659.552660	5516.615000	1657.408203	221.069870
-15659.552660	5516.615000	1656.378906	244.577255
-15659.552660	5516.615000	1655.350586	126.382317
-15659.552660	5516.615000	1654.321289	196.325729
-15659.552660	5516.615000	1653.291992	115.313049
-15659.552660	5516.615000	1652.261719	150.388199
-15659.552660	5516.615000	1651.232422	204.011581
-15659.552660	5516.615000	1650.202148	148.539001
-15659.552660	5516.615000	1649.171875	165.000061
-15659.552660	5516.615000	1648.141602	218.559433
-15659.552660	5516.615000	1647.111328	265.131836
-15659.552660	5516.615000	1646.080078	225.882721
-15659.552660	5516.615000	1645.049805	170.416199
-15659.552660	5516.615000	1644.018555	212.307175
-15659.552660	5516.615000	1642.987305	358.453949
-15659.552660	5516.615000	1641.955078	228.822784
-15659.552660	5516.615000	1640.923828	330.881561
-15659.552660	5516.615000	1639.891602	284.666107
-15659.552660	5516.615000	1638.859375	268.563538
-15659.552660	5516.615000	1637.827148	176.061310
-15659.552660	5516.615000	1636.794922	224.781647
-15659.552660	5516.615000	1635.761719	326.699585
-15659.552660	5516.615000	1634.729492	310.572601
-15659.552660	5516.615000	1633.696289	312.948669
-15659.552660	5516.615000	1632.662109	380.074097
-15659.552660	5516.615000	1631.628906	292.238586
-15659.552660	5516.615000	1630.594727	380.137146
-15659.552660	5516.615000	1629.561523	472.621490
-15659.552660	5516.615000	1628.527344	382.486694
-15659.552660	5516.615000	1627.493164	269.275696
-15659.552660	5516.615000	1626.458008	345.532776
-15659.552660	5516.615000	1625.423828	424.068268
-15659.552660	5516.615000	1624.388672	421.740204
-15659.552660	5516.615000	1623.353516	500.216461
-15659.552660	5516.615000	1622.318359	352.437714
-15659.552660	5516.615000	1621.282227	273.945770
-15659.552660	5516.615000	1620.247070	506.991455
-15659.552660	5516.615000	1619.210938	405.421021
-15659.552660	5516.615000	1618.174805	407.681732
-15659.552660	5516.615000	1617.137695	421.464844
-15659.552660	5516.615000	1616.101563	488.272614
-15659.552660	5516.615000	1615.064453	356.798523
-15659.552660	5516.615000	1614.027344	626.402832
-15659.552660	5516.615000	1612.990234	527.206909
-15659.552660	5516.615000	1611.953125	506.377930
-15659.552660	5516.615000	1610.916016	439.485840
-15659.552660	5516.615000	1609.877930	432.491516
-15659.552660	5516.615000	1608.839844	321.883209
-15659.552660	5516.615000	1607.801758	436.920410
-15659.552660	5516.615000	1606.763672	400.002258
-15659.552660	5516.615000	1605.724609	478.153015
-15659.552660	5516.615000	1604.685547	662.105591
-15659.552660	5516.615000	1603.646484	521.643921
-15659.552660	5516.615000	1602.607422	441.031403
-15659.552660	5516.615000	1601.568359	484.616333
-15659.552660	5516.615000	1600.528320	410.934235
-15659.552660	5516.615000	1599.489258	353.372681
-15659.552660	5516.615000	1598.449219	633.643127
-15659.552660	5516.615000	1597.408203	438.197479
-15659.552660	5516.615000	1596.368164	502.409088
-15659.552660	5516.615000	1595.327148	479.317566
-15659.552660	5516.615000	1594.287109	428.684021
-15659.552660	5516.615000	1593.246094	421.687195
-15659.552660	5516.615000	1592.204102	566.184753
-15659.552660	5516.615000	1591.163086	570.639954
-15659.552660	5516.615000	1590.121094	487.902374
