#X		#Y		#Wave		#Intensity
9259.565426	5131.905000	1999.946289	-155.641830
9259.565426	5131.905000	1998.981445	3.867963
9259.565426	5131.905000	1998.017578	64.841576
9259.565426	5131.905000	1997.052734	-62.741215
9259.565426	5131.905000	1996.088867	62.246181
9259.565426	5131.905000	1995.124023	134.979797
9259.565426	5131.905000	1994.159180	103.478745
9259.565426	5131.905000	1993.193359	52.002346
9259.565426	5131.905000	1992.228516	-103.614632
9259.565426	5131.905000	1991.262695	-14.282012
9259.565426	5131.905000	1990.296875	37.729641
9259.565426	5131.905000	1989.331055	280.095154
9259.565426	5131.905000	1988.365234	34.840759
9259.565426	5131.905000	1987.398438	24.513355
9259.565426	5131.905000	1986.432617	-35.419071
9259.565426	5131.905000	1985.465820	-58.379547
9259.565426	5131.905000	1984.499023	165.744598
9259.565426	5131.905000	1983.532227	78.221375
9259.565426	5131.905000	1982.565430	133.932983
9259.565426	5131.905000	1981.597656	253.739380
9259.565426	5131.905000	1980.629883	22.596237
9259.565426	5131.905000	1979.662109	152.021240
9259.565426	5131.905000	1978.694336	-54.552013
9259.565426	5131.905000	1977.726563	-61.174351
9259.565426	5131.905000	1976.758789	146.857193
9259.565426	5131.905000	1975.790039	-67.320229
9259.565426	5131.905000	1974.821289	-118.658943
9259.565426	5131.905000	1973.852539	61.834820
9259.565426	5131.905000	1972.883789	269.303162
9259.565426	5131.905000	1971.915039	-73.352058
9259.565426	5131.905000	1970.945313	-26.382265
9259.565426	5131.905000	1969.975586	59.933197
9259.565426	5131.905000	1969.005859	-58.440601
9259.565426	5131.905000	1968.036133	141.055099
9259.565426	5131.905000	1967.066406	148.220169
9259.565426	5131.905000	1966.096680	152.848587
9259.565426	5131.905000	1965.125977	-0.222049
9259.565426	5131.905000	1964.155273	85.563904
9259.565426	5131.905000	1963.184570	77.697479
9259.565426	5131.905000	1962.213867	10.697945
9259.565426	5131.905000	1961.242188	-66.179611
9259.565426	5131.905000	1960.271484	-0.361463
9259.565426	5131.905000	1959.299805	-200.324615
9259.565426	5131.905000	1958.328125	81.852768
9259.565426	5131.905000	1957.356445	7.278516
9259.565426	5131.905000	1956.384766	-0.923978
9259.565426	5131.905000	1955.412109	158.004593
9259.565426	5131.905000	1954.439453	98.076859
9259.565426	5131.905000	1953.467773	87.284996
9259.565426	5131.905000	1952.495117	128.057220
9259.565426	5131.905000	1951.521484	249.845627
9259.565426	5131.905000	1950.548828	91.561150
9259.565426	5131.905000	1949.575195	85.554466
9259.565426	5131.905000	1948.601563	64.791206
9259.565426	5131.905000	1947.627930	44.008511
9259.565426	5131.905000	1946.654297	94.382927
9259.565426	5131.905000	1945.680664	-127.659050
9259.565426	5131.905000	1944.706055	69.885117
9259.565426	5131.905000	1943.732422	26.951717
9259.565426	5131.905000	1942.757813	15.896615
9259.565426	5131.905000	1941.783203	17.088562
9259.565426	5131.905000	1940.807617	-165.603943
9259.565426	5131.905000	1939.833008	122.369576
9259.565426	5131.905000	1938.857422	15.668389
9259.565426	5131.905000	1937.881836	87.858398
9259.565426	5131.905000	1936.906250	0.779725
9259.565426	5131.905000	1935.930664	9.246088
9259.565426	5131.905000	1934.955078	-23.927866
9259.565426	5131.905000	1933.978516	-32.615231
9259.565426	5131.905000	1933.001953	56.611050
9259.565426	5131.905000	1932.025391	-67.127861
9259.565426	5131.905000	1931.048828	22.063574
9259.565426	5131.905000	1930.072266	-3.767781
9259.565426	5131.905000	1929.094727	104.940315
9259.565426	5131.905000	1928.118164	-57.853809
9259.565426	5131.905000	1927.140625	60.604195
9259.565426	5131.905000	1926.163086	66.563385
9259.565426	5131.905000	1925.184570	84.740166
9259.565426	5131.905000	1924.207031	-46.157291
9259.565426	5131.905000	1923.228516	-37.733177
9259.565426	5131.905000	1922.250000	85.506554
9259.565426	5131.905000	1921.271484	130.546890
9259.565426	5131.905000	1920.292969	43.708775
9259.565426	5131.905000	1919.314453	54.568928
9259.565426	5131.905000	1918.334961	136.220505
9259.565426	5131.905000	1917.355469	-38.414913
9259.565426	5131.905000	1916.375977	-110.492134
9259.565426	5131.905000	1915.396484	68.753937
9259.565426	5131.905000	1914.416992	47.922344
9259.565426	5131.905000	1913.436523	-41.180000
9259.565426	5131.905000	1912.457031	52.635971
9259.565426	5131.905000	1911.476563	36.719975
9259.565426	5131.905000	1910.496094	-52.303555
9259.565426	5131.905000	1909.515625	143.841049
9259.565426	5131.905000	1908.534180	-130.326492
9259.565426	5131.905000	1907.552734	70.649185
9259.565426	5131.905000	1906.572266	-13.402583
9259.565426	5131.905000	1905.590820	29.212631
9259.565426	5131.905000	1904.608398	-86.433708
9259.565426	5131.905000	1903.626953	146.070663
9259.565426	5131.905000	1902.644531	-57.148193
9259.565426	5131.905000	1901.663086	9.819942
9259.565426	5131.905000	1900.680664	-32.706486
9259.565426	5131.905000	1899.698242	82.900475
9259.565426	5131.905000	1898.714844	67.147720
9259.565426	5131.905000	1897.732422	12.509740
9259.565426	5131.905000	1896.749023	4.092108
9259.565426	5131.905000	1895.765625	-9.173654
9259.565426	5131.905000	1894.782227	67.492653
9259.565426	5131.905000	1893.798828	-81.820183
9259.565426	5131.905000	1892.814453	-150.904144
9259.565426	5131.905000	1891.831055	-47.505714
9259.565426	5131.905000	1890.846680	123.855721
9259.565426	5131.905000	1889.862305	130.068542
9259.565426	5131.905000	1888.877930	-9.355733
9259.565426	5131.905000	1887.892578	-131.731552
9259.565426	5131.905000	1886.908203	-89.046791
9259.565426	5131.905000	1885.922852	84.636200
9259.565426	5131.905000	1884.937500	61.789639
9259.565426	5131.905000	1883.952148	-2.266406
9259.565426	5131.905000	1882.965820	176.177994
9259.565426	5131.905000	1881.980469	165.475586
9259.565426	5131.905000	1880.994141	52.984970
9259.565426	5131.905000	1880.007813	-1.296360
9259.565426	5131.905000	1879.021484	-116.121658
9259.565426	5131.905000	1878.035156	-83.128967
9259.565426	5131.905000	1877.047852	-101.003876
9259.565426	5131.905000	1876.061523	45.798576
9259.565426	5131.905000	1875.074219	49.708290
9259.565426	5131.905000	1874.086914	-118.241226
9259.565426	5131.905000	1873.098633	88.999763
9259.565426	5131.905000	1872.111328	-59.525833
9259.565426	5131.905000	1871.123047	162.152924
9259.565426	5131.905000	1870.135742	-22.603725
9259.565426	5131.905000	1869.147461	46.636108
9259.565426	5131.905000	1868.158203	111.017509
9259.565426	5131.905000	1867.169922	-233.167694
9259.565426	5131.905000	1866.180664	-50.321606
9259.565426	5131.905000	1865.192383	6.800707
9259.565426	5131.905000	1864.203125	237.857697
9259.565426	5131.905000	1863.213867	89.578003
9259.565426	5131.905000	1862.223633	100.753517
9259.565426	5131.905000	1861.234375	-313.062286
9259.565426	5131.905000	1860.244141	-38.661186
9259.565426	5131.905000	1859.253906	28.047771
9259.565426	5131.905000	1858.263672	-25.935928
9259.565426	5131.905000	1857.273438	91.413567
9259.565426	5131.905000	1856.282227	297.975983
9259.565426	5131.905000	1855.291992	-21.355362
9259.565426	5131.905000	1854.300781	-31.894762
9259.565426	5131.905000	1853.309570	-32.789581
9259.565426	5131.905000	1852.317383	-81.902298
9259.565426	5131.905000	1851.326172	-87.617950
9259.565426	5131.905000	1850.333984	145.224747
9259.565426	5131.905000	1849.342773	214.145096
9259.565426	5131.905000	1848.350586	112.004547
9259.565426	5131.905000	1847.357422	-168.325409
9259.565426	5131.905000	1846.365234	-34.394775
9259.565426	5131.905000	1845.372070	130.772110
9259.565426	5131.905000	1844.379883	67.203354
9259.565426	5131.905000	1843.386719	143.228134
9259.565426	5131.905000	1842.393555	173.498917
9259.565426	5131.905000	1841.399414	42.566174
9259.565426	5131.905000	1840.406250	-155.671768
9259.565426	5131.905000	1839.412109	-199.944443
9259.565426	5131.905000	1838.417969	41.897732
9259.565426	5131.905000	1837.423828	134.598328
9259.565426	5131.905000	1836.429688	203.216370
9259.565426	5131.905000	1835.434570	170.868683
9259.565426	5131.905000	1834.440430	138.521103
9259.565426	5131.905000	1833.445313	7.686152
9259.565426	5131.905000	1832.450195	126.648239
9259.565426	5131.905000	1831.454102	77.468483
9259.565426	5131.905000	1830.458984	105.113792
9259.565426	5131.905000	1829.462891	101.527267
9259.565426	5131.905000	1828.466797	124.321487
9259.565426	5131.905000	1827.470703	156.685364
9259.565426	5131.905000	1826.474609	157.833206
9259.565426	5131.905000	1825.478516	106.195129
9259.565426	5131.905000	1824.481445	205.626099
9259.565426	5131.905000	1823.484375	96.416527
9259.565426	5131.905000	1822.487305	143.034637
9259.565426	5131.905000	1821.490234	53.007256
9259.565426	5131.905000	1820.493164	-25.027487
9259.565426	5131.905000	1819.495117	-40.769394
9259.565426	5131.905000	1818.498047	-90.060654
9259.565426	5131.905000	1817.500000	92.935936
9259.565426	5131.905000	1816.500977	215.978607
9259.565426	5131.905000	1815.502930	164.196960
9259.565426	5131.905000	1814.504883	-102.999428
9259.565426	5131.905000	1813.505859	122.833054
9259.565426	5131.905000	1812.506836	205.000717
9259.565426	5131.905000	1811.507813	4.843886
9259.565426	5131.905000	1810.508789	82.164833
9259.565426	5131.905000	1809.508789	298.115082
9259.565426	5131.905000	1808.508789	121.875130
9259.565426	5131.905000	1807.508789	127.334114
9259.565426	5131.905000	1806.508789	68.236717
9259.565426	5131.905000	1805.508789	212.227966
9259.565426	5131.905000	1804.508789	19.295721
9259.565426	5131.905000	1803.507813	175.120667
9259.565426	5131.905000	1802.506836	75.336601
9259.565426	5131.905000	1801.505859	231.029022
9259.565426	5131.905000	1800.504883	59.594944
9259.565426	5131.905000	1799.502930	-73.623863
9259.565426	5131.905000	1798.501953	100.999329
9259.565426	5131.905000	1797.500000	67.958969
9259.565426	5131.905000	1796.498047	53.979870
9259.565426	5131.905000	1795.496094	32.816513
9259.565426	5131.905000	1794.493164	-121.903343
9259.565426	5131.905000	1793.491211	-42.969612
9259.565426	5131.905000	1792.488281	9.678279
9259.565426	5131.905000	1791.485352	114.695992
9259.565426	5131.905000	1790.482422	-90.099449
9259.565426	5131.905000	1789.478516	31.495749
9259.565426	5131.905000	1788.475586	10.110010
9259.565426	5131.905000	1787.471680	169.665909
9259.565426	5131.905000	1786.467773	102.948212
9259.565426	5131.905000	1785.463867	102.866760
9259.565426	5131.905000	1784.459961	-16.247717
9259.565426	5131.905000	1783.455078	78.790825
9259.565426	5131.905000	1782.450195	-76.040291
9259.565426	5131.905000	1781.445313	-35.812637
9259.565426	5131.905000	1780.440430	-2.773587
9259.565426	5131.905000	1779.435547	63.498459
9259.565426	5131.905000	1778.429688	63.140568
9259.565426	5131.905000	1777.424805	-6.179868
9259.565426	5131.905000	1776.418945	26.662128
9259.565426	5131.905000	1775.413086	-2.322602
9259.565426	5131.905000	1774.406250	-171.488327
9259.565426	5131.905000	1773.400391	82.109062
9259.565426	5131.905000	1772.393555	124.235863
9259.565426	5131.905000	1771.386719	28.610123
9259.565426	5131.905000	1770.379883	77.766800
9259.565426	5131.905000	1769.373047	-27.391972
9259.565426	5131.905000	1768.365234	5.057678
9259.565426	5131.905000	1767.358398	61.177555
9259.565426	5131.905000	1766.350586	-27.450062
9259.565426	5131.905000	1765.342773	57.019150
9259.565426	5131.905000	1764.334961	25.239325
9259.565426	5131.905000	1763.326172	244.687881
9259.565426	5131.905000	1762.318359	227.015930
9259.565426	5131.905000	1761.309570	161.910873
9259.565426	5131.905000	1760.300781	253.144989
9259.565426	5131.905000	1759.291016	187.967056
9259.565426	5131.905000	1758.282227	248.285400
9259.565426	5131.905000	1757.272461	7.831048
9259.565426	5131.905000	1756.262695	160.389191
9259.565426	5131.905000	1755.252930	2.790789
9259.565426	5131.905000	1754.243164	188.329727
9259.565426	5131.905000	1753.233398	321.702209
9259.565426	5131.905000	1752.222656	26.825710
9259.565426	5131.905000	1751.211914	70.211281
9259.565426	5131.905000	1750.201172	70.973114
9259.565426	5131.905000	1749.190430	-53.610489
9259.565426	5131.905000	1748.179688	169.267075
9259.565426	5131.905000	1747.167969	113.149094
9259.565426	5131.905000	1746.156250	40.467747
9259.565426	5131.905000	1745.144531	88.244514
9259.565426	5131.905000	1744.132813	13.141522
9259.565426	5131.905000	1743.121094	-26.559000
9259.565426	5131.905000	1742.108398	287.849152
9259.565426	5131.905000	1741.095703	309.387268
9259.565426	5131.905000	1740.083008	97.225349
9259.565426	5131.905000	1739.070313	64.428825
9259.565426	5131.905000	1738.057617	144.837631
9259.565426	5131.905000	1737.043945	156.761276
9259.565426	5131.905000	1736.030273	-81.340164
9259.565426	5131.905000	1735.016602	-31.743984
9259.565426	5131.905000	1734.002930	-64.721565
9259.565426	5131.905000	1732.989258	199.238892
9259.565426	5131.905000	1731.974609	130.786636
9259.565426	5131.905000	1730.959961	-20.146397
9259.565426	5131.905000	1729.945313	19.732899
9259.565426	5131.905000	1728.930664	-88.820473
9259.565426	5131.905000	1727.916016	-11.359100
9259.565426	5131.905000	1726.900391	-138.795456
9259.565426	5131.905000	1725.885742	18.581526
9259.565426	5131.905000	1724.870117	79.362770
9259.565426	5131.905000	1723.853516	102.424294
9259.565426	5131.905000	1722.837891	-1.592866
9259.565426	5131.905000	1721.822266	51.967136
9259.565426	5131.905000	1720.805664	321.793182
9259.565426	5131.905000	1719.789063	-0.993697
9259.565426	5131.905000	1718.772461	-6.368928
9259.565426	5131.905000	1717.754883	131.566269
9259.565426	5131.905000	1716.738281	217.718109
9259.565426	5131.905000	1715.720703	80.607498
9259.565426	5131.905000	1714.703125	30.411329
9259.565426	5131.905000	1713.685547	-57.382843
9259.565426	5131.905000	1712.667969	-185.099976
9259.565426	5131.905000	1711.649414	76.859695
9259.565426	5131.905000	1710.630859	-67.355087
9259.565426	5131.905000	1709.612305	-77.803627
9259.565426	5131.905000	1708.593750	-90.636024
9259.565426	5131.905000	1707.575195	-178.566833
9259.565426	5131.905000	1706.555664	293.992798
9259.565426	5131.905000	1705.536133	142.624435
9259.565426	5131.905000	1704.516602	-74.367859
9259.565426	5131.905000	1703.497070	-42.868557
9259.565426	5131.905000	1702.477539	-25.482796
9259.565426	5131.905000	1701.457031	-38.608196
9259.565426	5131.905000	1700.437500	-77.529617
9259.565426	5131.905000	1699.416992	-67.299477
9259.565426	5131.905000	1698.395508	83.377388
9259.565426	5131.905000	1697.375000	88.813026
9259.565426	5131.905000	1696.354492	2.919366
9259.565426	5131.905000	1695.333008	15.305449
9259.565426	5131.905000	1694.311523	149.318954
9259.565426	5131.905000	1693.290039	201.365555
9259.565426	5131.905000	1692.267578	75.590340
9259.565426	5131.905000	1691.246094	-127.334816
9259.565426	5131.905000	1690.223633	-61.354485
9259.565426	5131.905000	1689.201172	9.239564
9259.565426	5131.905000	1688.178711	-205.356949
9259.565426	5131.905000	1687.155273	-57.729500
9259.565426	5131.905000	1686.132813	213.631027
9259.565426	5131.905000	1685.109375	279.299316
9259.565426	5131.905000	1684.085938	-7.724246
9259.565426	5131.905000	1683.062500	69.567650
9259.565426	5131.905000	1682.039063	37.079735
9259.565426	5131.905000	1681.014648	256.631653
9259.565426	5131.905000	1679.990234	214.713226
9259.565426	5131.905000	1678.965820	165.779984
9259.565426	5131.905000	1677.941406	144.825546
9259.565426	5131.905000	1676.916992	-97.708176
9259.565426	5131.905000	1675.891602	-39.394234
9259.565426	5131.905000	1674.866211	35.186050
9259.565426	5131.905000	1673.840820	142.338837
9259.565426	5131.905000	1672.815430	144.554840
9259.565426	5131.905000	1671.790039	88.492783
9259.565426	5131.905000	1670.763672	55.712341
9259.565426	5131.905000	1669.737305	160.328629
9259.565426	5131.905000	1668.710938	101.877312
9259.565426	5131.905000	1667.684570	211.046417
9259.565426	5131.905000	1666.658203	99.019096
9259.565426	5131.905000	1665.630859	161.542419
9259.565426	5131.905000	1664.603516	0.646697
9259.565426	5131.905000	1663.576172	195.716248
9259.565426	5131.905000	1662.548828	211.593414
9259.565426	5131.905000	1661.520508	227.433441
9259.565426	5131.905000	1660.493164	64.228233
9259.565426	5131.905000	1659.464844	52.151012
9259.565426	5131.905000	1658.436523	165.556427
9259.565426	5131.905000	1657.408203	18.649139
9259.565426	5131.905000	1656.378906	206.309906
9259.565426	5131.905000	1655.350586	136.060150
9259.565426	5131.905000	1654.321289	42.588543
9259.565426	5131.905000	1653.291992	209.178558
9259.565426	5131.905000	1652.261719	215.502884
9259.565426	5131.905000	1651.232422	428.377045
9259.565426	5131.905000	1650.202148	211.853851
9259.565426	5131.905000	1649.171875	292.362366
9259.565426	5131.905000	1648.141602	252.203964
9259.565426	5131.905000	1647.111328	346.556000
9259.565426	5131.905000	1646.080078	285.495392
9259.565426	5131.905000	1645.049805	338.046814
9259.565426	5131.905000	1644.018555	323.339142
9259.565426	5131.905000	1642.987305	345.700958
9259.565426	5131.905000	1641.955078	381.935699
9259.565426	5131.905000	1640.923828	406.569092
9259.565426	5131.905000	1639.891602	345.480957
9259.565426	5131.905000	1638.859375	624.791870
9259.565426	5131.905000	1637.827148	376.142059
9259.565426	5131.905000	1636.794922	611.339844
9259.565426	5131.905000	1635.761719	506.241333
9259.565426	5131.905000	1634.729492	361.849945
9259.565426	5131.905000	1633.696289	490.468201
9259.565426	5131.905000	1632.662109	406.238403
9259.565426	5131.905000	1631.628906	627.281006
9259.565426	5131.905000	1630.594727	429.759064
9259.565426	5131.905000	1629.561523	620.648499
9259.565426	5131.905000	1628.527344	617.323242
9259.565426	5131.905000	1627.493164	436.077728
9259.565426	5131.905000	1626.458008	735.405884
9259.565426	5131.905000	1625.423828	544.962524
9259.565426	5131.905000	1624.388672	747.157532
9259.565426	5131.905000	1623.353516	607.568726
9259.565426	5131.905000	1622.318359	648.084351
9259.565426	5131.905000	1621.282227	672.422058
9259.565426	5131.905000	1620.247070	708.295044
9259.565426	5131.905000	1619.210938	679.550964
9259.565426	5131.905000	1618.174805	676.191223
9259.565426	5131.905000	1617.137695	492.950104
9259.565426	5131.905000	1616.101563	784.759644
9259.565426	5131.905000	1615.064453	772.161682
9259.565426	5131.905000	1614.027344	741.135315
9259.565426	5131.905000	1612.990234	751.602112
9259.565426	5131.905000	1611.953125	833.492371
9259.565426	5131.905000	1610.916016	777.149475
9259.565426	5131.905000	1609.877930	727.737488
9259.565426	5131.905000	1608.839844	802.688354
9259.565426	5131.905000	1607.801758	645.108337
9259.565426	5131.905000	1606.763672	851.256836
9259.565426	5131.905000	1605.724609	981.386658
9259.565426	5131.905000	1604.685547	876.802002
9259.565426	5131.905000	1603.646484	882.681213
9259.565426	5131.905000	1602.607422	874.770996
9259.565426	5131.905000	1601.568359	816.289856
9259.565426	5131.905000	1600.528320	881.979004
9259.565426	5131.905000	1599.489258	828.142090
9259.565426	5131.905000	1598.449219	813.399597
9259.565426	5131.905000	1597.408203	1095.059814
9259.565426	5131.905000	1596.368164	859.774109
9259.565426	5131.905000	1595.327148	966.796753
9259.565426	5131.905000	1594.287109	708.698914
9259.565426	5131.905000	1593.246094	889.209534
9259.565426	5131.905000	1592.204102	821.762024
9259.565426	5131.905000	1591.163086	740.597290
9259.565426	5131.905000	1590.121094	865.976685
9259.565426	5131.905000	1589.079102	954.623962
9259.565426	5131.905000	1588.037109	777.203918
9259.565426	5131.905000	1586.995117	654.908569
9259.565426	5131.905000	1585.953125	798.632080
9259.565426	5131.905000	1584.910156	1105.062134
9259.565426	5131.905000	1583.867188	925.540833
9259.565426	5131.905000	1582.824219	858.388855
9259.565426	5131.905000	1581.781250	871.467346
9259.565426	5131.905000	1580.737305	973.884949
9259.565426	5131.905000	1579.693359	877.060669
9259.565426	5131.905000	1578.649414	782.590820
9259.565426	5131.905000	1577.605469	626.379272
9259.565426	5131.905000	1576.561523	776.932617
9259.565426	5131.905000	1575.516602	774.140869
9259.565426	5131.905000	1574.472656	846.880920
9259.565426	5131.905000	1573.427734	937.913940
9259.565426	5131.905000	1572.381836	859.708374
