#X		#Y		#Wave		#Intensity
9616.261170	4845.450000	1999.946289	-69.773354
9616.261170	4845.450000	1998.981445	41.844986
9616.261170	4845.450000	1998.017578	38.795010
9616.261170	4845.450000	1997.052734	-28.656374
9616.261170	4845.450000	1996.088867	-71.273918
9616.261170	4845.450000	1995.124023	29.829054
9616.261170	4845.450000	1994.159180	54.145168
9616.261170	4845.450000	1993.193359	175.053329
9616.261170	4845.450000	1992.228516	-13.529574
9616.261170	4845.450000	1991.262695	30.666971
9616.261170	4845.450000	1990.296875	163.970688
9616.261170	4845.450000	1989.331055	166.107239
9616.261170	4845.450000	1988.365234	76.732178
9616.261170	4845.450000	1987.398438	41.832050
9616.261170	4845.450000	1986.432617	6.973112
9616.261170	4845.450000	1985.465820	93.308067
9616.261170	4845.450000	1984.499023	194.468948
9616.261170	4845.450000	1983.532227	137.429504
9616.261170	4845.450000	1982.565430	122.446396
9616.261170	4845.450000	1981.597656	53.134041
9616.261170	4845.450000	1980.629883	-58.123898
9616.261170	4845.450000	1979.662109	-63.113682
9616.261170	4845.450000	1978.694336	-26.098866
9616.261170	4845.450000	1977.726563	141.778091
9616.261170	4845.450000	1976.758789	82.515625
9616.261170	4845.450000	1975.790039	151.632095
9616.261170	4845.450000	1974.821289	176.328690
9616.261170	4845.450000	1973.852539	139.359711
9616.261170	4845.450000	1972.883789	102.425720
9616.261170	4845.450000	1971.915039	-50.384731
9616.261170	4845.450000	1970.945313	-37.916180
9616.261170	4845.450000	1969.975586	97.831291
9616.261170	4845.450000	1969.005859	4.320980
9616.261170	4845.450000	1968.036133	21.760574
9616.261170	4845.450000	1967.066406	-7.601218
9616.261170	4845.450000	1966.096680	-9.835511
9616.261170	4845.450000	1965.125977	54.448421
9616.261170	4845.450000	1964.155273	-24.099461
9616.261170	4845.450000	1963.184570	-65.669151
9616.261170	4845.450000	1962.213867	84.799339
9616.261170	4845.450000	1961.242188	60.486397
9616.261170	4845.450000	1960.271484	112.482567
9616.261170	4845.450000	1959.299805	-22.502958
9616.261170	4845.450000	1958.328125	-46.731682
9616.261170	4845.450000	1957.356445	59.408661
9616.261170	4845.450000	1956.384766	8.158515
9616.261170	4845.450000	1955.412109	55.277958
9616.261170	4845.450000	1954.439453	154.012268
9616.261170	4845.450000	1953.467773	151.969421
9616.261170	4845.450000	1952.495117	71.315933
9616.261170	4845.450000	1951.521484	7.901907
9616.261170	4845.450000	1950.548828	20.666969
9616.261170	4845.450000	1949.575195	146.400757
9616.261170	4845.450000	1948.601563	83.051079
9616.261170	4845.450000	1947.627930	108.109642
9616.261170	4845.450000	1946.654297	66.906517
9616.261170	4845.450000	1945.680664	23.278133
9616.261170	4845.450000	1944.706055	104.800186
9616.261170	4845.450000	1943.732422	61.206783
9616.261170	4845.450000	1942.757813	5.378847
9616.261170	4845.450000	1941.783203	74.636673
9616.261170	4845.450000	1940.807617	-69.405388
9616.261170	4845.450000	1939.833008	159.185638
9616.261170	4845.450000	1938.857422	22.556900
9616.261170	4845.450000	1937.881836	40.352142
9616.261170	4845.450000	1936.906250	-123.127594
9616.261170	4845.450000	1935.930664	19.623091
9616.261170	4845.450000	1934.955078	8.056361
9616.261170	4845.450000	1933.978516	8.745395
9616.261170	4845.450000	1933.001953	51.058743
9616.261170	4845.450000	1932.025391	-16.768217
9616.261170	4845.450000	1931.048828	-8.703470
9616.261170	4845.450000	1930.072266	-93.600006
9616.261170	4845.450000	1929.094727	102.842453
9616.261170	4845.450000	1928.118164	123.137466
9616.261170	4845.450000	1927.140625	6.503755
9616.261170	4845.450000	1926.163086	-19.623056
9616.261170	4845.450000	1925.184570	0.708487
9616.261170	4845.450000	1924.207031	-27.833834
9616.261170	4845.450000	1923.228516	75.582306
9616.261170	4845.450000	1922.250000	-43.334545
9616.261170	4845.450000	1921.271484	-44.962273
9616.261170	4845.450000	1920.292969	36.445515
9616.261170	4845.450000	1919.314453	47.026798
9616.261170	4845.450000	1918.334961	55.169395
9616.261170	4845.450000	1917.355469	14.504412
9616.261170	4845.450000	1916.375977	42.185719
9616.261170	4845.450000	1915.396484	18.630116
9616.261170	4845.450000	1914.416992	73.145767
9616.261170	4845.450000	1913.436523	44.727951
9616.261170	4845.450000	1912.457031	11.451491
9616.261170	4845.450000	1911.476563	29.388180
9616.261170	4845.450000	1910.496094	18.075094
9616.261170	4845.450000	1909.515625	31.141941
9616.261170	4845.450000	1908.534180	-21.577351
9616.261170	4845.450000	1907.552734	-54.782780
9616.261170	4845.450000	1906.572266	-61.178024
9616.261170	4845.450000	1905.590820	-6.687797
9616.261170	4845.450000	1904.608398	21.004641
9616.261170	4845.450000	1903.626953	14.612935
9616.261170	4845.450000	1902.644531	42.300549
9616.261170	4845.450000	1901.663086	99.183205
9616.261170	4845.450000	1900.680664	-87.239182
9616.261170	4845.450000	1899.698242	-54.670307
9616.261170	4845.450000	1898.714844	19.233097
9616.261170	4845.450000	1897.732422	-52.776798
9616.261170	4845.450000	1896.749023	-134.481293
9616.261170	4845.450000	1895.765625	-4.689564
9616.261170	4845.450000	1894.782227	49.722733
9616.261170	4845.450000	1893.798828	-29.515312
9616.261170	4845.450000	1892.814453	39.462063
9616.261170	4845.450000	1891.831055	25.838621
9616.261170	4845.450000	1890.846680	-21.774059
9616.261170	4845.450000	1889.862305	30.176153
9616.261170	4845.450000	1888.877930	-2.850207
9616.261170	4845.450000	1887.892578	56.362007
9616.261170	4845.450000	1886.908203	-39.741741
9616.261170	4845.450000	1885.922852	48.571735
9616.261170	4845.450000	1884.937500	-69.321953
9616.261170	4845.450000	1883.952148	-133.816513
9616.261170	4845.450000	1882.965820	-103.723167
9616.261170	4845.450000	1881.980469	35.451649
9616.261170	4845.450000	1880.994141	17.028784
9616.261170	4845.450000	1880.007813	64.043991
9616.261170	4845.450000	1879.021484	-80.364929
9616.261170	4845.450000	1878.035156	24.790644
9616.261170	4845.450000	1877.047852	122.640671
9616.261170	4845.450000	1876.061523	109.065651
9616.261170	4845.450000	1875.074219	8.337147
9616.261170	4845.450000	1874.086914	77.089058
9616.261170	4845.450000	1873.098633	85.310730
9616.261170	4845.450000	1872.111328	33.037437
9616.261170	4845.450000	1871.123047	-4.701920
9616.261170	4845.450000	1870.135742	80.931885
9616.261170	4845.450000	1869.147461	-72.883324
9616.261170	4845.450000	1868.158203	150.547623
9616.261170	4845.450000	1867.169922	78.968262
9616.261170	4845.450000	1866.180664	94.425308
9616.261170	4845.450000	1865.192383	63.962101
9616.261170	4845.450000	1864.203125	2.099723
9616.261170	4845.450000	1863.213867	10.311926
9616.261170	4845.450000	1862.223633	-24.954170
9616.261170	4845.450000	1861.234375	36.380424
9616.261170	4845.450000	1860.244141	83.204224
9616.261170	4845.450000	1859.253906	-24.475084
9616.261170	4845.450000	1858.263672	126.112633
9616.261170	4845.450000	1857.273438	78.783905
9616.261170	4845.450000	1856.282227	4.933103
9616.261170	4845.450000	1855.291992	-1.355878
9616.261170	4845.450000	1854.300781	9.234908
9616.261170	4845.450000	1853.309570	162.073273
9616.261170	4845.450000	1852.317383	-41.923210
9616.261170	4845.450000	1851.326172	-36.159405
9616.261170	4845.450000	1850.333984	97.313728
9616.261170	4845.450000	1849.342773	1.853300
9616.261170	4845.450000	1848.350586	115.992332
9616.261170	4845.450000	1847.357422	116.890594
9616.261170	4845.450000	1846.365234	110.562210
9616.261170	4845.450000	1845.372070	41.637589
9616.261170	4845.450000	1844.379883	-12.822022
9616.261170	4845.450000	1843.386719	33.809628
9616.261170	4845.450000	1842.393555	-51.916267
9616.261170	4845.450000	1841.399414	-26.954718
9616.261170	4845.450000	1840.406250	74.960152
9616.261170	4845.450000	1839.412109	8.499231
9616.261170	4845.450000	1838.417969	-74.771118
9616.261170	4845.450000	1837.423828	5.446104
9616.261170	4845.450000	1836.429688	71.208405
9616.261170	4845.450000	1835.434570	9.584426
9616.261170	4845.450000	1834.440430	-90.460190
9616.261170	4845.450000	1833.445313	25.709513
9616.261170	4845.450000	1832.450195	-38.288074
9616.261170	4845.450000	1831.454102	118.635948
9616.261170	4845.450000	1830.458984	-34.190697
9616.261170	4845.450000	1829.462891	149.064926
9616.261170	4845.450000	1828.466797	10.676750
9616.261170	4845.450000	1827.470703	61.880741
9616.261170	4845.450000	1826.474609	122.655075
9616.261170	4845.450000	1825.478516	49.089478
9616.261170	4845.450000	1824.481445	81.054817
9616.261170	4845.450000	1823.484375	67.449303
9616.261170	4845.450000	1822.487305	22.680798
9616.261170	4845.450000	1821.490234	-41.250069
9616.261170	4845.450000	1820.493164	-33.278938
9616.261170	4845.450000	1819.495117	29.782887
9616.261170	4845.450000	1818.498047	-24.552156
9616.261170	4845.450000	1817.500000	-11.819904
9616.261170	4845.450000	1816.500977	139.771271
9616.261170	4845.450000	1815.502930	63.879620
9616.261170	4845.450000	1814.504883	45.452118
9616.261170	4845.450000	1813.505859	53.346134
9616.261170	4845.450000	1812.506836	27.734140
9616.261170	4845.450000	1811.507813	47.574295
9616.261170	4845.450000	1810.508789	62.616020
9616.261170	4845.450000	1809.508789	65.687614
9616.261170	4845.450000	1808.508789	16.154188
9616.261170	4845.450000	1807.508789	88.535927
9616.261170	4845.450000	1806.508789	122.645248
9616.261170	4845.450000	1805.508789	46.822399
9616.261170	4845.450000	1804.508789	143.022369
9616.261170	4845.450000	1803.507813	-42.662415
9616.261170	4845.450000	1802.506836	89.321198
9616.261170	4845.450000	1801.505859	99.480690
9616.261170	4845.450000	1800.504883	174.079926
9616.261170	4845.450000	1799.502930	-6.731615
9616.261170	4845.450000	1798.501953	156.132324
9616.261170	4845.450000	1797.500000	94.663216
9616.261170	4845.450000	1796.498047	64.217987
9616.261170	4845.450000	1795.496094	119.630066
9616.261170	4845.450000	1794.493164	41.484482
9616.261170	4845.450000	1793.491211	20.575546
9616.261170	4845.450000	1792.488281	99.771637
9616.261170	4845.450000	1791.485352	-80.824196
9616.261170	4845.450000	1790.482422	45.994534
9616.261170	4845.450000	1789.478516	82.233475
9616.261170	4845.450000	1788.475586	-12.543200
9616.261170	4845.450000	1787.471680	40.342865
9616.261170	4845.450000	1786.467773	102.722565
9616.261170	4845.450000	1785.463867	0.825331
9616.261170	4845.450000	1784.459961	-3.467308
9616.261170	4845.450000	1783.455078	4.128085
9616.261170	4845.450000	1782.450195	-0.184022
9616.261170	4845.450000	1781.445313	-16.397093
9616.261170	4845.450000	1780.440430	-49.260448
9616.261170	4845.450000	1779.435547	62.914574
9616.261170	4845.450000	1778.429688	-124.489746
9616.261170	4845.450000	1777.424805	-21.869961
9616.261170	4845.450000	1776.418945	-30.985889
9616.261170	4845.450000	1775.413086	-2.095150
9616.261170	4845.450000	1774.406250	12.520926
9616.261170	4845.450000	1773.400391	107.869919
9616.261170	4845.450000	1772.393555	89.196091
9616.261170	4845.450000	1771.386719	198.716721
9616.261170	4845.450000	1770.379883	-5.127316
9616.261170	4845.450000	1769.373047	52.140011
9616.261170	4845.450000	1768.365234	38.193138
9616.261170	4845.450000	1767.358398	-37.435581
9616.261170	4845.450000	1766.350586	135.988983
9616.261170	4845.450000	1765.342773	91.175125
9616.261170	4845.450000	1764.334961	46.367706
9616.261170	4845.450000	1763.326172	-17.398062
9616.261170	4845.450000	1762.318359	13.649548
9616.261170	4845.450000	1761.309570	30.456263
9616.261170	4845.450000	1760.300781	104.103249
9616.261170	4845.450000	1759.291016	137.443558
9616.261170	4845.450000	1758.282227	-54.214600
9616.261170	4845.450000	1757.272461	-9.040092
9616.261170	4845.450000	1756.262695	92.920364
9616.261170	4845.450000	1755.252930	-15.815429
9616.261170	4845.450000	1754.243164	-58.262875
9616.261170	4845.450000	1753.233398	38.883919
9616.261170	4845.450000	1752.222656	65.017265
9616.261170	4845.450000	1751.211914	5.988935
9616.261170	4845.450000	1750.201172	77.022789
9616.261170	4845.450000	1749.190430	-43.474682
9616.261170	4845.450000	1748.179688	39.337807
9616.261170	4845.450000	1747.167969	3.945059
9616.261170	4845.450000	1746.156250	-85.788643
9616.261170	4845.450000	1745.144531	86.717018
9616.261170	4845.450000	1744.132813	-21.915899
9616.261170	4845.450000	1743.121094	79.647079
9616.261170	4845.450000	1742.108398	-2.996507
9616.261170	4845.450000	1741.095703	-7.723033
9616.261170	4845.450000	1740.083008	27.661833
9616.261170	4845.450000	1739.070313	22.908581
9616.261170	4845.450000	1738.057617	32.300907
9616.261170	4845.450000	1737.043945	51.111603
9616.261170	4845.450000	1736.030273	-12.635502
9616.261170	4845.450000	1735.016602	175.916031
9616.261170	4845.450000	1734.002930	-1.006229
9616.261170	4845.450000	1732.989258	-10.531931
9616.261170	4845.450000	1731.974609	-109.612434
9616.261170	4845.450000	1730.959961	78.766624
9616.261170	4845.450000	1729.945313	59.773457
9616.261170	4845.450000	1728.930664	-27.522087
9616.261170	4845.450000	1727.916016	21.774784
9616.261170	4845.450000	1726.900391	45.143326
9616.261170	4845.450000	1725.885742	106.153389
9616.261170	4845.450000	1724.870117	4.749305
9616.261170	4845.450000	1723.853516	23.366367
9616.261170	4845.450000	1722.837891	-19.195528
9616.261170	4845.450000	1721.822266	27.621721
9616.261170	4845.450000	1720.805664	-40.815472
9616.261170	4845.450000	1719.789063	85.899956
9616.261170	4845.450000	1718.772461	-43.660442
9616.261170	4845.450000	1717.754883	52.430767
9616.261170	4845.450000	1716.738281	-11.303983
9616.261170	4845.450000	1715.720703	-11.597289
9616.261170	4845.450000	1714.703125	39.771931
9616.261170	4845.450000	1713.685547	32.401615
9616.261170	4845.450000	1712.667969	55.545952
9616.261170	4845.450000	1711.649414	109.185539
9616.261170	4845.450000	1710.630859	99.424553
9616.261170	4845.450000	1709.612305	23.952494
9616.261170	4845.450000	1708.593750	86.919067
9616.261170	4845.450000	1707.575195	88.863617
9616.261170	4845.450000	1706.555664	-31.156389
9616.261170	4845.450000	1705.536133	-151.140717
9616.261170	4845.450000	1704.516602	-109.332733
9616.261170	4845.450000	1703.497070	14.483435
9616.261170	4845.450000	1702.477539	51.535629
9616.261170	4845.450000	1701.457031	8.900313
9616.261170	4845.450000	1700.437500	-40.754490
9616.261170	4845.450000	1699.416992	-15.457064
9616.261170	4845.450000	1698.395508	70.700096
9616.261170	4845.450000	1697.375000	124.039612
9616.261170	4845.450000	1696.354492	32.224365
9616.261170	4845.450000	1695.333008	-17.443151
9616.261170	4845.450000	1694.311523	-81.140808
9616.261170	4845.450000	1693.290039	9.573591
9616.261170	4845.450000	1692.267578	-5.009925
9616.261170	4845.450000	1691.246094	-26.611103
9616.261170	4845.450000	1690.223633	5.558036
9616.261170	4845.450000	1689.201172	44.717861
9616.261170	4845.450000	1688.178711	81.515419
9616.261170	4845.450000	1687.155273	-42.942654
9616.261170	4845.450000	1686.132813	68.596886
9616.261170	4845.450000	1685.109375	-74.516281
9616.261170	4845.450000	1684.085938	55.647720
9616.261170	4845.450000	1683.062500	-5.706673
9616.261170	4845.450000	1682.039063	2.985555
9616.261170	4845.450000	1681.014648	-74.693901
9616.261170	4845.450000	1679.990234	130.002762
9616.261170	4845.450000	1678.965820	-94.672913
9616.261170	4845.450000	1677.941406	109.930534
9616.261170	4845.450000	1676.916992	43.914497
9616.261170	4845.450000	1675.891602	26.878716
9616.261170	4845.450000	1674.866211	-57.765884
9616.261170	4845.450000	1673.840820	25.432205
9616.261170	4845.450000	1672.815430	-28.902414
9616.261170	4845.450000	1671.790039	42.591190
9616.261170	4845.450000	1670.763672	-62.993382
9616.261170	4845.450000	1669.737305	103.949905
9616.261170	4845.450000	1668.710938	21.662859
9616.261170	4845.450000	1667.684570	-14.038030
9616.261170	4845.450000	1666.658203	-77.665352
9616.261170	4845.450000	1665.630859	35.590527
9616.261170	4845.450000	1664.603516	-14.079351
9616.261170	4845.450000	1663.576172	89.799484
9616.261170	4845.450000	1662.548828	7.559893
9616.261170	4845.450000	1661.520508	-116.515114
9616.261170	4845.450000	1660.493164	96.574196
9616.261170	4845.450000	1659.464844	-20.511805
9616.261170	4845.450000	1658.436523	76.255379
9616.261170	4845.450000	1657.408203	80.032845
9616.261170	4845.450000	1656.378906	46.628220
9616.261170	4845.450000	1655.350586	134.013962
9616.261170	4845.450000	1654.321289	84.341858
9616.261170	4845.450000	1653.291992	-58.191357
9616.261170	4845.450000	1652.261719	108.065926
9616.261170	4845.450000	1651.232422	39.839882
9616.261170	4845.450000	1650.202148	34.284687
9616.261170	4845.450000	1649.171875	130.806580
9616.261170	4845.450000	1648.141602	13.882977
9616.261170	4845.450000	1647.111328	154.422684
9616.261170	4845.450000	1646.080078	46.800209
9616.261170	4845.450000	1645.049805	36.581364
9616.261170	4845.450000	1644.018555	156.154907
9616.261170	4845.450000	1642.987305	231.646591
9616.261170	4845.450000	1641.955078	133.334229
9616.261170	4845.450000	1640.923828	213.423309
9616.261170	4845.450000	1639.891602	105.878014
9616.261170	4845.450000	1638.859375	167.403473
9616.261170	4845.450000	1637.827148	203.434357
9616.261170	4845.450000	1636.794922	135.287216
9616.261170	4845.450000	1635.761719	97.243515
9616.261170	4845.450000	1634.729492	202.665039
9616.261170	4845.450000	1633.696289	197.000305
9616.261170	4845.450000	1632.662109	269.967682
9616.261170	4845.450000	1631.628906	192.598480
9616.261170	4845.450000	1630.594727	216.978836
9616.261170	4845.450000	1629.561523	222.855881
9616.261170	4845.450000	1628.527344	154.770859
9616.261170	4845.450000	1627.493164	174.511444
9616.261170	4845.450000	1626.458008	94.901062
9616.261170	4845.450000	1625.423828	340.990082
9616.261170	4845.450000	1624.388672	157.454956
9616.261170	4845.450000	1623.353516	204.869049
9616.261170	4845.450000	1622.318359	201.477615
9616.261170	4845.450000	1621.282227	168.079178
9616.261170	4845.450000	1620.247070	120.848610
9616.261170	4845.450000	1619.210938	117.464828
9616.261170	4845.450000	1618.174805	155.597870
9616.261170	4845.450000	1617.137695	170.649765
9616.261170	4845.450000	1616.101563	42.744617
9616.261170	4845.450000	1615.064453	228.395325
9616.261170	4845.450000	1614.027344	165.055634
9616.261170	4845.450000	1612.990234	336.780365
9616.261170	4845.450000	1611.953125	275.744965
9616.261170	4845.450000	1610.916016	288.441284
9616.261170	4845.450000	1609.877930	211.312851
9616.261170	4845.450000	1608.839844	422.029724
9616.261170	4845.450000	1607.801758	321.882050
9616.261170	4845.450000	1606.763672	263.201569
9616.261170	4845.450000	1605.724609	317.299500
9616.261170	4845.450000	1604.685547	329.962067
9616.261170	4845.450000	1603.646484	347.219727
9616.261170	4845.450000	1602.607422	343.771820
9616.261170	4845.450000	1601.568359	367.917816
9616.261170	4845.450000	1600.528320	343.774139
9616.261170	4845.450000	1599.489258	259.881409
9616.261170	4845.450000	1598.449219	176.019608
9616.261170	4845.450000	1597.408203	223.151306
9616.261170	4845.450000	1596.368164	180.679428
9616.261170	4845.450000	1595.327148	216.309753
9616.261170	4845.450000	1594.287109	212.892960
9616.261170	4845.450000	1593.246094	243.913651
9616.261170	4845.450000	1592.204102	286.397888
9616.261170	4845.450000	1591.163086	106.263191
9616.261170	4845.450000	1590.121094	293.311584
9616.261170	4845.450000	1589.079102	409.174042
9616.261170	4845.450000	1588.037109	215.362457
9616.261170	4845.450000	1586.995117	202.784180
9616.261170	4845.450000	1585.953125	217.725510
9616.261170	4845.450000	1584.910156	221.199371
9616.261170	4845.450000	1583.867188	194.881653
9616.261170	4845.450000	1582.824219	228.151413
9616.261170	4845.450000	1581.781250	135.413116
9616.261170	4845.450000	1580.737305	262.591797
9616.261170	4845.450000	1579.693359	220.266144
9616.261170	4845.450000	1578.649414	187.118454
9616.261170	4845.450000	1577.605469	76.158669
9616.261170	4845.450000	1576.561523	200.974335
9616.261170	4845.450000	1575.516602	305.149200
9616.261170	4845.450000	1574.472656	171.365387
9616.261170	4845.450000	1573.427734	211.469437
9616.261170	4845.450000	1572.381836	109.775963
9616.261170	4845.450000	1571.336914	143.026123
9616.261170	4845.450000	1570.291016	155.691986
