#X		#Y		#Wave		#Intensity
9612.733511	4786.993333	1999.946289	9.255683
9612.733511	4786.993333	1998.981445	-41.473869
9612.733511	4786.993333	1998.017578	78.116920
9612.733511	4786.993333	1997.052734	-65.015007
9612.733511	4786.993333	1996.088867	101.616325
9612.733511	4786.993333	1995.124023	-4.304111
9612.733511	4786.993333	1994.159180	-3.683336
9612.733511	4786.993333	1993.193359	100.942375
9612.733511	4786.993333	1992.228516	29.750147
9612.733511	4786.993333	1991.262695	156.614182
9612.733511	4786.993333	1990.296875	87.916756
9612.733511	4786.993333	1989.331055	98.429863
9612.733511	4786.993333	1988.365234	-54.341103
9612.733511	4786.993333	1987.398438	79.874496
9612.733511	4786.993333	1986.432617	-1.111990
9612.733511	4786.993333	1985.465820	-49.923134
9612.733511	4786.993333	1984.499023	-12.188167
9612.733511	4786.993333	1983.532227	94.742599
9612.733511	4786.993333	1982.565430	48.420700
9612.733511	4786.993333	1981.597656	26.825277
9612.733511	4786.993333	1980.629883	136.167435
9612.733511	4786.993333	1979.662109	25.654940
9612.733511	4786.993333	1978.694336	18.900869
9612.733511	4786.993333	1977.726563	49.186485
9612.733511	4786.993333	1976.758789	12.815037
9612.733511	4786.993333	1975.790039	-11.201113
9612.733511	4786.993333	1974.821289	172.069565
9612.733511	4786.993333	1973.852539	-34.526234
9612.733511	4786.993333	1972.883789	170.886765
9612.733511	4786.993333	1971.915039	-50.423378
9612.733511	4786.993333	1970.945313	-15.213546
9612.733511	4786.993333	1969.975586	96.409431
9612.733511	4786.993333	1969.005859	40.387211
9612.733511	4786.993333	1968.036133	58.319427
9612.733511	4786.993333	1967.066406	41.753700
9612.733511	4786.993333	1966.096680	49.831882
9612.733511	4786.993333	1965.125977	67.760719
9612.733511	4786.993333	1964.155273	63.523678
9612.733511	4786.993333	1963.184570	54.367363
9612.733511	4786.993333	1962.213867	-28.630342
9612.733511	4786.993333	1961.242188	9.000985
9612.733511	4786.993333	1960.271484	39.240700
9612.733511	4786.993333	1959.299805	52.249847
9612.733511	4786.993333	1958.328125	-10.995687
9612.733511	4786.993333	1957.356445	19.239697
9612.733511	4786.993333	1956.384766	98.644478
9612.733511	4786.993333	1955.412109	3.475228
9612.733511	4786.993333	1954.439453	80.401169
9612.733511	4786.993333	1953.467773	39.342972
9612.733511	4786.993333	1952.495117	69.556458
9612.733511	4786.993333	1951.521484	126.783585
9612.733511	4786.993333	1950.548828	-51.793995
9612.733511	4786.993333	1949.575195	-48.583519
9612.733511	4786.993333	1948.601563	-38.005642
9612.733511	4786.993333	1947.627930	90.399834
9612.733511	4786.993333	1946.654297	24.871675
9612.733511	4786.993333	1945.680664	-101.974648
9612.733511	4786.993333	1944.706055	90.167511
9612.733511	4786.993333	1943.732422	154.690689
9612.733511	4786.993333	1942.757813	-3.981995
9612.733511	4786.993333	1941.783203	-22.828104
9612.733511	4786.993333	1940.807617	12.269321
9612.733511	4786.993333	1939.833008	62.064354
9612.733511	4786.993333	1938.857422	30.972330
9612.733511	4786.993333	1937.881836	-54.009239
9612.733511	4786.993333	1936.906250	-31.167732
9612.733511	4786.993333	1935.930664	21.059336
9612.733511	4786.993333	1934.955078	-44.272636
9612.733511	4786.993333	1933.978516	20.184772
9612.733511	4786.993333	1933.001953	-8.398829
9612.733511	4786.993333	1932.025391	-14.941928
9612.733511	4786.993333	1931.048828	-31.267302
9612.733511	4786.993333	1930.072266	175.051056
9612.733511	4786.993333	1929.094727	-78.568123
9612.733511	4786.993333	1928.118164	-26.386240
9612.733511	4786.993333	1927.140625	-20.679773
9612.733511	4786.993333	1926.163086	-29.640488
9612.733511	4786.993333	1925.184570	142.278549
9612.733511	4786.993333	1924.207031	-137.965103
9612.733511	4786.993333	1923.228516	-129.788055
9612.733511	4786.993333	1922.250000	17.633297
9612.733511	4786.993333	1921.271484	-13.295070
9612.733511	4786.993333	1920.292969	9.514204
9612.733511	4786.993333	1919.314453	22.551802
9612.733511	4786.993333	1918.334961	79.525314
9612.733511	4786.993333	1917.355469	-2.634253
9612.733511	4786.993333	1916.375977	32.366512
9612.733511	4786.993333	1915.396484	-86.344017
9612.733511	4786.993333	1914.416992	-68.410423
9612.733511	4786.993333	1913.436523	15.365632
9612.733511	4786.993333	1912.457031	52.785103
9612.733511	4786.993333	1911.476563	-12.198666
9612.733511	4786.993333	1910.496094	-84.468185
9612.733511	4786.993333	1909.515625	77.240417
9612.733511	4786.993333	1908.534180	29.350086
9612.733511	4786.993333	1907.552734	42.381130
9612.733511	4786.993333	1906.572266	38.360935
9612.733511	4786.993333	1905.590820	29.473339
9612.733511	4786.993333	1904.608398	18.155304
9612.733511	4786.993333	1903.626953	186.977997
9612.733511	4786.993333	1902.644531	-26.365210
9612.733511	4786.993333	1901.663086	-54.693298
9612.733511	4786.993333	1900.680664	-78.143951
9612.733511	4786.993333	1899.698242	5.442291
9612.733511	4786.993333	1898.714844	64.678314
9612.733511	4786.993333	1897.732422	41.223400
9612.733511	4786.993333	1896.749023	-13.825752
9612.733511	4786.993333	1895.765625	47.815788
9612.733511	4786.993333	1894.782227	38.961426
9612.733511	4786.993333	1893.798828	27.682144
9612.733511	4786.993333	1892.814453	-12.743385
9612.733511	4786.993333	1891.831055	19.711760
9612.733511	4786.993333	1890.846680	-76.546371
9612.733511	4786.993333	1889.862305	14.178994
9612.733511	4786.993333	1888.877930	61.177582
9612.733511	4786.993333	1887.892578	69.327187
9612.733511	4786.993333	1886.908203	126.006035
9612.733511	4786.993333	1885.922852	71.064514
9612.733511	4786.993333	1884.937500	45.251637
9612.733511	4786.993333	1883.952148	-2.377251
9612.733511	4786.993333	1882.965820	3.354722
9612.733511	4786.993333	1881.980469	81.813065
9612.733511	4786.993333	1880.994141	43.899693
9612.733511	4786.993333	1880.007813	83.547691
9612.733511	4786.993333	1879.021484	-87.609482
9612.733511	4786.993333	1878.035156	-30.994505
9612.733511	4786.993333	1877.047852	-3.465178
9612.733511	4786.993333	1876.061523	-9.846435
9612.733511	4786.993333	1875.074219	-76.752953
9612.733511	4786.993333	1874.086914	-56.492630
9612.733511	4786.993333	1873.098633	-2.358805
9612.733511	4786.993333	1872.111328	-45.032623
9612.733511	4786.993333	1871.123047	96.171043
9612.733511	4786.993333	1870.135742	-28.745359
9612.733511	4786.993333	1869.147461	-25.444357
9612.733511	4786.993333	1868.158203	52.808338
9612.733511	4786.993333	1867.169922	-26.101038
9612.733511	4786.993333	1866.180664	-32.473446
9612.733511	4786.993333	1865.192383	57.817589
9612.733511	4786.993333	1864.203125	121.495758
9612.733511	4786.993333	1863.213867	-46.750015
9612.733511	4786.993333	1862.223633	2.430235
9612.733511	4786.993333	1861.234375	-8.776475
9612.733511	4786.993333	1860.244141	28.303986
9612.733511	4786.993333	1859.253906	65.369087
9612.733511	4786.993333	1858.263672	30.018101
9612.733511	4786.993333	1857.273438	64.652794
9612.733511	4786.993333	1856.282227	60.672928
9612.733511	4786.993333	1855.291992	-3.606539
9612.733511	4786.993333	1854.300781	62.358620
9612.733511	4786.993333	1853.309570	-21.190168
9612.733511	4786.993333	1852.317383	95.371933
9612.733511	4786.993333	1851.326172	52.816696
9612.733511	4786.993333	1850.333984	82.566498
9612.733511	4786.993333	1849.342773	102.666069
9612.733511	4786.993333	1848.350586	50.490410
9612.733511	4786.993333	1847.357422	166.916397
9612.733511	4786.993333	1846.365234	160.493378
9612.733511	4786.993333	1845.372070	-4.823318
9612.733511	4786.993333	1844.379883	27.294746
9612.733511	4786.993333	1843.386719	-3.173432
9612.733511	4786.993333	1842.393555	-67.318932
9612.733511	4786.993333	1841.399414	-1.538911
9612.733511	4786.993333	1840.406250	56.998257
9612.733511	4786.993333	1839.412109	36.152897
9612.733511	4786.993333	1838.417969	-3.922652
9612.733511	4786.993333	1837.423828	54.570831
9612.733511	4786.993333	1836.429688	69.777794
9612.733511	4786.993333	1835.434570	12.886016
9612.733511	4786.993333	1834.440430	59.319935
9612.733511	4786.993333	1833.445313	64.896629
9612.733511	4786.993333	1832.450195	5.624650
9612.733511	4786.993333	1831.454102	100.042618
9612.733511	4786.993333	1830.458984	55.181908
9612.733511	4786.993333	1829.462891	-44.871861
9612.733511	4786.993333	1828.466797	47.089096
9612.733511	4786.993333	1827.470703	-33.739510
9612.733511	4786.993333	1826.474609	-83.357285
9612.733511	4786.993333	1825.478516	56.513523
9612.733511	4786.993333	1824.481445	95.611679
9612.733511	4786.993333	1823.484375	199.422836
9612.733511	4786.993333	1822.487305	20.337523
9612.733511	4786.993333	1821.490234	28.249695
9612.733511	4786.993333	1820.493164	-50.107826
9612.733511	4786.993333	1819.495117	39.257137
9612.733511	4786.993333	1818.498047	-77.407379
9612.733511	4786.993333	1817.500000	21.497334
9612.733511	4786.993333	1816.500977	41.345188
9612.733511	4786.993333	1815.502930	176.087631
9612.733511	4786.993333	1814.504883	42.707787
9612.733511	4786.993333	1813.505859	-23.624207
9612.733511	4786.993333	1812.506836	-10.983444
9612.733511	4786.993333	1811.507813	-113.173721
9612.733511	4786.993333	1810.508789	50.139828
9612.733511	4786.993333	1809.508789	34.046272
9612.733511	4786.993333	1808.508789	104.018867
9612.733511	4786.993333	1807.508789	4.248701
9612.733511	4786.993333	1806.508789	-28.574863
9612.733511	4786.993333	1805.508789	-75.729004
9612.733511	4786.993333	1804.508789	-15.370051
9612.733511	4786.993333	1803.507813	28.238966
9612.733511	4786.993333	1802.506836	24.064274
9612.733511	4786.993333	1801.505859	-27.866867
9612.733511	4786.993333	1800.504883	108.796783
9612.733511	4786.993333	1799.502930	92.654488
9612.733511	4786.993333	1798.501953	47.877361
9612.733511	4786.993333	1797.500000	36.509689
9612.733511	4786.993333	1796.498047	120.551437
9612.733511	4786.993333	1795.496094	92.465897
9612.733511	4786.993333	1794.493164	-19.072010
9612.733511	4786.993333	1793.491211	0.543714
9612.733511	4786.993333	1792.488281	103.565796
9612.733511	4786.993333	1791.485352	94.537682
9612.733511	4786.993333	1790.482422	90.270576
9612.733511	4786.993333	1789.478516	143.168121
9612.733511	4786.993333	1788.475586	84.098610
9612.733511	4786.993333	1787.471680	127.436272
9612.733511	4786.993333	1786.467773	-24.475840
9612.733511	4786.993333	1785.463867	2.187642
9612.733511	4786.993333	1784.459961	81.190086
9612.733511	4786.993333	1783.455078	98.287865
9612.733511	4786.993333	1782.450195	-46.400532
9612.733511	4786.993333	1781.445313	-50.708435
9612.733511	4786.993333	1780.440430	2.050868
9612.733511	4786.993333	1779.435547	2.473260
9612.733511	4786.993333	1778.429688	-23.262785
9612.733511	4786.993333	1777.424805	136.388428
9612.733511	4786.993333	1776.418945	117.748268
9612.733511	4786.993333	1775.413086	-14.933651
9612.733511	4786.993333	1774.406250	97.088997
9612.733511	4786.993333	1773.400391	-16.557213
9612.733511	4786.993333	1772.393555	112.026901
9612.733511	4786.993333	1771.386719	-44.330635
9612.733511	4786.993333	1770.379883	3.490005
9612.733511	4786.993333	1769.373047	44.164066
9612.733511	4786.993333	1768.365234	-26.703781
9612.733511	4786.993333	1767.358398	111.202843
9612.733511	4786.993333	1766.350586	49.817928
9612.733511	4786.993333	1765.342773	19.274015
9612.733511	4786.993333	1764.334961	-84.764389
9612.733511	4786.993333	1763.326172	143.084702
9612.733511	4786.993333	1762.318359	-36.796104
9612.733511	4786.993333	1761.309570	27.441435
9612.733511	4786.993333	1760.300781	148.502411
9612.733511	4786.993333	1759.291016	46.856419
9612.733511	4786.993333	1758.282227	54.176441
9612.733511	4786.993333	1757.272461	101.733246
9612.733511	4786.993333	1756.262695	104.284958
9612.733511	4786.993333	1755.252930	-49.384789
9612.733511	4786.993333	1754.243164	-37.359993
9612.733511	4786.993333	1753.233398	5.407153
9612.733511	4786.993333	1752.222656	-105.608185
9612.733511	4786.993333	1751.211914	17.545017
9612.733511	4786.993333	1750.201172	173.744675
9612.733511	4786.993333	1749.190430	110.012711
9612.733511	4786.993333	1748.179688	129.022934
9612.733511	4786.993333	1747.167969	1.495604
9612.733511	4786.993333	1746.156250	-26.757870
9612.733511	4786.993333	1745.144531	122.162888
9612.733511	4786.993333	1744.132813	98.600632
9612.733511	4786.993333	1743.121094	-7.611649
9612.733511	4786.993333	1742.108398	-21.718603
9612.733511	4786.993333	1741.095703	11.380317
9612.733511	4786.993333	1740.083008	-73.546837
9612.733511	4786.993333	1739.070313	20.878340
9612.733511	4786.993333	1738.057617	-9.778249
9612.733511	4786.993333	1737.043945	-141.859436
9612.733511	4786.993333	1736.030273	77.479530
9612.733511	4786.993333	1735.016602	-28.652479
9612.733511	4786.993333	1734.002930	86.836327
9612.733511	4786.993333	1732.989258	23.146130
9612.733511	4786.993333	1731.974609	93.786606
9612.733511	4786.993333	1730.959961	-2.887193
9612.733511	4786.993333	1729.945313	67.709686
9612.733511	4786.993333	1728.930664	44.065037
9612.733511	4786.993333	1727.916016	-123.214935
9612.733511	4786.993333	1726.900391	-12.646731
9612.733511	4786.993333	1725.885742	-43.355324
9612.733511	4786.993333	1724.870117	-71.710861
9612.733511	4786.993333	1723.853516	-60.068832
9612.733511	4786.993333	1722.837891	-34.326378
9612.733511	4786.993333	1721.822266	-65.050537
9612.733511	4786.993333	1720.805664	129.968964
9612.733511	4786.993333	1719.789063	-32.456665
9612.733511	4786.993333	1718.772461	0.269274
9612.733511	4786.993333	1717.754883	37.670990
9612.733511	4786.993333	1716.738281	-44.785740
9612.733511	4786.993333	1715.720703	46.622288
9612.733511	4786.993333	1714.703125	93.357224
9612.733511	4786.993333	1713.685547	-3.185897
9612.733511	4786.993333	1712.667969	52.911411
9612.733511	4786.993333	1711.649414	50.288540
9612.733511	4786.993333	1710.630859	0.716770
9612.733511	4786.993333	1709.612305	21.549641
9612.733511	4786.993333	1708.593750	0.134344
9612.733511	4786.993333	1707.575195	-58.813267
9612.733511	4786.993333	1706.555664	1.854465
9612.733511	4786.993333	1705.536133	3.870296
9612.733511	4786.993333	1704.516602	76.203979
9612.733511	4786.993333	1703.497070	21.931734
9612.733511	4786.993333	1702.477539	16.881220
9612.733511	4786.993333	1701.457031	23.535513
9612.733511	4786.993333	1700.437500	62.974468
9612.733511	4786.993333	1699.416992	29.781870
9612.733511	4786.993333	1698.395508	-45.558388
9612.733511	4786.993333	1697.375000	24.273361
9612.733511	4786.993333	1696.354492	89.387123
9612.733511	4786.993333	1695.333008	126.381172
9612.733511	4786.993333	1694.311523	-12.135169
9612.733511	4786.993333	1693.290039	38.880142
9612.733511	4786.993333	1692.267578	68.813927
9612.733511	4786.993333	1691.246094	-53.271870
9612.733511	4786.993333	1690.223633	91.211288
9612.733511	4786.993333	1689.201172	39.273643
9612.733511	4786.993333	1688.178711	120.561745
9612.733511	4786.993333	1687.155273	47.586891
9612.733511	4786.993333	1686.132813	21.356918
9612.733511	4786.993333	1685.109375	-77.282890
9612.733511	4786.993333	1684.085938	36.619186
9612.733511	4786.993333	1683.062500	-1.298125
9612.733511	4786.993333	1682.039063	2.809478
9612.733511	4786.993333	1681.014648	72.254517
9612.733511	4786.993333	1679.990234	15.654278
9612.733511	4786.993333	1678.965820	-3.604461
9612.733511	4786.993333	1677.941406	77.437843
9612.733511	4786.993333	1676.916992	60.488293
9612.733511	4786.993333	1675.891602	99.495613
9612.733511	4786.993333	1674.866211	28.909641
9612.733511	4786.993333	1673.840820	-57.974133
9612.733511	4786.993333	1672.815430	-79.582397
9612.733511	4786.993333	1671.790039	-14.984406
9612.733511	4786.993333	1670.763672	75.202126
9612.733511	4786.993333	1669.737305	30.262039
9612.733511	4786.993333	1668.710938	-21.654673
9612.733511	4786.993333	1667.684570	-1.388267
9612.733511	4786.993333	1666.658203	39.810852
9612.733511	4786.993333	1665.630859	39.093990
9612.733511	4786.993333	1664.603516	145.400818
9612.733511	4786.993333	1663.576172	23.678194
9612.733511	4786.993333	1662.548828	11.310980
9612.733511	4786.993333	1661.520508	15.216568
9612.733511	4786.993333	1660.493164	121.413948
9612.733511	4786.993333	1659.464844	-32.787579
9612.733511	4786.993333	1658.436523	-1.010301
9612.733511	4786.993333	1657.408203	-1.783909
9612.733511	4786.993333	1656.378906	132.178101
9612.733511	4786.993333	1655.350586	117.427521
9612.733511	4786.993333	1654.321289	202.531876
9612.733511	4786.993333	1653.291992	192.400177
9612.733511	4786.993333	1652.261719	29.051815
9612.733511	4786.993333	1651.232422	70.004448
9612.733511	4786.993333	1650.202148	159.662003
9612.733511	4786.993333	1649.171875	144.876358
9612.733511	4786.993333	1648.141602	58.182323
9612.733511	4786.993333	1647.111328	210.386612
9612.733511	4786.993333	1646.080078	146.885086
9612.733511	4786.993333	1645.049805	162.223770
9612.733511	4786.993333	1644.018555	96.425690
9612.733511	4786.993333	1642.987305	125.657707
9612.733511	4786.993333	1641.955078	238.278061
9612.733511	4786.993333	1640.923828	195.648743
9612.733511	4786.993333	1639.891602	146.080338
9612.733511	4786.993333	1638.859375	272.506836
9612.733511	4786.993333	1637.827148	195.149551
9612.733511	4786.993333	1636.794922	212.717560
9612.733511	4786.993333	1635.761719	193.243912
9612.733511	4786.993333	1634.729492	78.910446
9612.733511	4786.993333	1633.696289	66.399300
9612.733511	4786.993333	1632.662109	137.148575
9612.733511	4786.993333	1631.628906	69.122894
9612.733511	4786.993333	1630.594727	51.979931
9612.733511	4786.993333	1629.561523	159.661865
9612.733511	4786.993333	1628.527344	100.899612
9612.733511	4786.993333	1627.493164	259.352325
9612.733511	4786.993333	1626.458008	179.790268
9612.733511	4786.993333	1625.423828	162.619553
9612.733511	4786.993333	1624.388672	150.067139
9612.733511	4786.993333	1623.353516	216.015823
9612.733511	4786.993333	1622.318359	238.075607
9612.733511	4786.993333	1621.282227	188.574875
9612.733511	4786.993333	1620.247070	58.331348
9612.733511	4786.993333	1619.210938	29.640846
9612.733511	4786.993333	1618.174805	256.987732
9612.733511	4786.993333	1617.137695	129.097870
9612.733511	4786.993333	1616.101563	298.688904
9612.733511	4786.993333	1615.064453	272.264130
9612.733511	4786.993333	1614.027344	100.645836
9612.733511	4786.993333	1612.990234	212.524109
9612.733511	4786.993333	1611.953125	285.189606
9612.733511	4786.993333	1610.916016	171.246933
9612.733511	4786.993333	1609.877930	181.705170
9612.733511	4786.993333	1608.839844	256.627808
9612.733511	4786.993333	1607.801758	352.237640
9612.733511	4786.993333	1606.763672	180.818954
9612.733511	4786.993333	1605.724609	363.845673
9612.733511	4786.993333	1604.685547	254.605423
9612.733511	4786.993333	1603.646484	255.820007
9612.733511	4786.993333	1602.607422	257.033020
9612.733511	4786.993333	1601.568359	274.339844
9612.733511	4786.993333	1600.528320	404.284668
9612.733511	4786.993333	1599.489258	403.166229
9612.733511	4786.993333	1598.449219	284.844788
9612.733511	4786.993333	1597.408203	334.290680
9612.733511	4786.993333	1596.368164	415.879333
9612.733511	4786.993333	1595.327148	419.345490
9612.733511	4786.993333	1594.287109	326.370178
9612.733511	4786.993333	1593.246094	249.499252
9612.733511	4786.993333	1592.204102	379.237701
9612.733511	4786.993333	1591.163086	350.579620
9612.733511	4786.993333	1590.121094	354.053162
9612.733511	4786.993333	1589.079102	444.697998
9612.733511	4786.993333	1588.037109	452.740265
9612.733511	4786.993333	1586.995117	258.986298
9612.733511	4786.993333	1585.953125	400.037354
9612.733511	4786.993333	1584.910156	318.687622
9612.733511	4786.993333	1583.867188	473.422943
9612.733511	4786.993333	1582.824219	515.824585
9612.733511	4786.993333	1581.781250	459.703705
9612.733511	4786.993333	1580.737305	403.604034
9612.733511	4786.993333	1579.693359	409.357666
9612.733511	4786.993333	1578.649414	373.899292
9612.733511	4786.993333	1577.605469	430.020050
9612.733511	4786.993333	1576.561523	458.658142
9612.733511	4786.993333	1575.516602	443.809448
9612.733511	4786.993333	1574.472656	557.084167
9612.733511	4786.993333	1573.427734	613.133179
9612.733511	4786.993333	1572.381836	431.330170
9612.733511	4786.993333	1571.336914	574.270630
9612.733511	4786.993333	1570.291016	387.980988
