#X		#Y		#Wave		#Intensity
10191.159043	5599.840000	1999.946289	-31.400738
10191.159043	5599.840000	1998.981445	72.323586
10191.159043	5599.840000	1998.017578	-65.271881
10191.159043	5599.840000	1997.052734	30.100748
10191.159043	5599.840000	1996.088867	-67.842636
10191.159043	5599.840000	1995.124023	72.037735
10191.159043	5599.840000	1994.159180	43.426510
10191.159043	5599.840000	1993.193359	66.806587
10191.159043	5599.840000	1992.228516	-36.108032
10191.159043	5599.840000	1991.262695	46.647858
10191.159043	5599.840000	1990.296875	124.405357
10191.159043	5599.840000	1989.331055	66.023308
10191.159043	5599.840000	1988.365234	-41.832817
10191.159043	5599.840000	1987.398438	-110.088562
10191.159043	5599.840000	1986.432617	14.566325
10191.159043	5599.840000	1985.465820	-56.174770
10191.159043	5599.840000	1984.499023	-82.403641
10191.159043	5599.840000	1983.532227	-39.427589
10191.159043	5599.840000	1982.565430	1.050546
10191.159043	5599.840000	1981.597656	6.911660
10191.159043	5599.840000	1980.629883	-130.517120
10191.159043	5599.840000	1979.662109	45.767338
10191.159043	5599.840000	1978.694336	49.120731
10191.159043	5599.840000	1977.726563	-1.851295
10191.159043	5599.840000	1976.758789	-10.846819
10191.159043	5599.840000	1975.790039	44.322018
10191.159043	5599.840000	1974.821289	161.153641
10191.159043	5599.840000	1973.852539	21.358627
10191.159043	5599.840000	1972.883789	-14.790496
10191.159043	5599.840000	1971.915039	42.785446
10191.159043	5599.840000	1970.945313	31.295197
10191.159043	5599.840000	1969.975586	19.806454
10191.159043	5599.840000	1969.005859	89.658104
10191.159043	5599.840000	1968.036133	-10.558559
10191.159043	5599.840000	1967.066406	2.600300
10191.159043	5599.840000	1966.096680	28.069698
10191.159043	5599.840000	1965.125977	63.380531
10191.159043	5599.840000	1964.155273	46.965153
10191.159043	5599.840000	1963.184570	89.645737
10191.159043	5599.840000	1962.213867	-32.616383
10191.159043	5599.840000	1961.242188	-36.698097
10191.159043	5599.840000	1960.271484	-85.068184
10191.159043	5599.840000	1959.299805	31.415676
10191.159043	5599.840000	1958.328125	-68.601357
10191.159043	5599.840000	1957.356445	92.108551
10191.159043	5599.840000	1956.384766	48.675591
10191.159043	5599.840000	1955.412109	64.262833
10191.159043	5599.840000	1954.439453	94.594963
10191.159043	5599.840000	1953.467773	-34.816772
10191.159043	5599.840000	1952.495117	111.010239
10191.159043	5599.840000	1951.521484	170.806213
10191.159043	5599.840000	1950.548828	97.953728
10191.159043	5599.840000	1949.575195	152.826965
10191.159043	5599.840000	1948.601563	141.393173
10191.159043	5599.840000	1947.627930	-56.592106
10191.159043	5599.840000	1946.654297	113.644730
10191.159043	5599.840000	1945.680664	18.808895
10191.159043	5599.840000	1944.706055	-22.012772
10191.159043	5599.840000	1943.732422	18.132938
10191.159043	5599.840000	1942.757813	43.553314
10191.159043	5599.840000	1941.783203	56.710110
10191.159043	5599.840000	1940.807617	67.414742
10191.159043	5599.840000	1939.833008	9.491905
10191.159043	5599.840000	1938.857422	39.817749
10191.159043	5599.840000	1937.881836	43.186478
10191.159043	5599.840000	1936.906250	-95.523926
10191.159043	5599.840000	1935.930664	-25.989216
10191.159043	5599.840000	1934.955078	53.320435
10191.159043	5599.840000	1933.978516	125.260841
10191.159043	5599.840000	1933.001953	-23.130219
10191.159043	5599.840000	1932.025391	202.998825
10191.159043	5599.840000	1931.048828	5.720223
10191.159043	5599.840000	1930.072266	204.859650
10191.159043	5599.840000	1929.094727	169.106400
10191.159043	5599.840000	1928.118164	-45.156963
10191.159043	5599.840000	1927.140625	12.078050
10191.159043	5599.840000	1926.163086	27.737791
10191.159043	5599.840000	1925.184570	114.279625
10191.159043	5599.840000	1924.207031	76.162178
10191.159043	5599.840000	1923.228516	126.023872
10191.159043	5599.840000	1922.250000	61.057106
10191.159043	5599.840000	1921.271484	130.453690
10191.159043	5599.840000	1920.292969	4.471811
10191.159043	5599.840000	1919.314453	-14.030698
10191.159043	5599.840000	1918.334961	33.386909
10191.159043	5599.840000	1917.355469	41.742168
10191.159043	5599.840000	1916.375977	135.504196
10191.159043	5599.840000	1915.396484	24.301773
10191.159043	5599.840000	1914.416992	-128.321289
10191.159043	5599.840000	1913.436523	-156.505280
10191.159043	5599.840000	1912.457031	-38.374329
10191.159043	5599.840000	1911.476563	145.539154
10191.159043	5599.840000	1910.496094	-33.787411
10191.159043	5599.840000	1909.515625	-105.816597
10191.159043	5599.840000	1908.534180	48.779545
10191.159043	5599.840000	1907.552734	52.286522
10191.159043	5599.840000	1906.572266	36.311085
10191.159043	5599.840000	1905.590820	149.407745
10191.159043	5599.840000	1904.608398	-44.306988
10191.159043	5599.840000	1903.626953	-48.074989
10191.159043	5599.840000	1902.644531	26.041550
10191.159043	5599.840000	1901.663086	-43.432690
10191.159043	5599.840000	1900.680664	-5.833327
10191.159043	5599.840000	1899.698242	-12.028739
10191.159043	5599.840000	1898.714844	66.897881
10191.159043	5599.840000	1897.732422	-4.955573
10191.159043	5599.840000	1896.749023	-30.591709
10191.159043	5599.840000	1895.765625	77.466286
10191.159043	5599.840000	1894.782227	-40.518631
10191.159043	5599.840000	1893.798828	11.619833
10191.159043	5599.840000	1892.814453	49.163704
10191.159043	5599.840000	1891.831055	16.259668
10191.159043	5599.840000	1890.846680	90.213715
10191.159043	5599.840000	1889.862305	-37.372871
10191.159043	5599.840000	1888.877930	31.708673
10191.159043	5599.840000	1887.892578	-95.820671
10191.159043	5599.840000	1886.908203	-34.034447
10191.159043	5599.840000	1885.922852	22.874783
10191.159043	5599.840000	1884.937500	94.314949
10191.159043	5599.840000	1883.952148	-6.458344
10191.159043	5599.840000	1882.965820	-63.551746
10191.159043	5599.840000	1881.980469	-103.655510
10191.159043	5599.840000	1880.994141	-27.405090
10191.159043	5599.840000	1880.007813	-2.076149
10191.159043	5599.840000	1879.021484	-27.639643
10191.159043	5599.840000	1878.035156	48.545288
10191.159043	5599.840000	1877.047852	66.570686
10191.159043	5599.840000	1876.061523	67.635979
10191.159043	5599.840000	1875.074219	102.591026
10191.159043	5599.840000	1874.086914	81.855484
10191.159043	5599.840000	1873.098633	-11.482043
10191.159043	5599.840000	1872.111328	-85.431091
10191.159043	5599.840000	1871.123047	17.247831
10191.159043	5599.840000	1870.135742	-1.056370
10191.159043	5599.840000	1869.147461	-62.889874
10191.159043	5599.840000	1868.158203	1.023908
10191.159043	5599.840000	1867.169922	-14.866517
10191.159043	5599.840000	1866.180664	-30.757748
10191.159043	5599.840000	1865.192383	35.512619
10191.159043	5599.840000	1864.203125	-108.446861
10191.159043	5599.840000	1863.213867	-61.525578
10191.159043	5599.840000	1862.223633	-58.102749
10191.159043	5599.840000	1861.234375	63.632999
10191.159043	5599.840000	1860.244141	-10.240096
10191.159043	5599.840000	1859.253906	-59.955147
10191.159043	5599.840000	1858.263672	78.581345
10191.159043	5599.840000	1857.273438	50.567356
10191.159043	5599.840000	1856.282227	-32.931538
10191.159043	5599.840000	1855.291992	-169.471558
10191.159043	5599.840000	1854.300781	-33.465748
10191.159043	5599.840000	1853.309570	32.557404
10191.159043	5599.840000	1852.317383	113.009628
10191.159043	5599.840000	1851.326172	63.272289
10191.159043	5599.840000	1850.333984	112.341431
10191.159043	5599.840000	1849.342773	9.597985
10191.159043	5599.840000	1848.350586	15.278676
10191.159043	5599.840000	1847.357422	49.846123
10191.159043	5599.840000	1846.365234	60.310707
10191.159043	5599.840000	1845.372070	15.387617
10191.159043	5599.840000	1844.379883	16.203495
10191.159043	5599.840000	1843.386719	122.894386
10191.159043	5599.840000	1842.393555	53.887516
10191.159043	5599.840000	1841.399414	47.440693
10191.159043	5599.840000	1840.406250	113.139641
10191.159043	5599.840000	1839.412109	77.800980
10191.159043	5599.840000	1838.417969	-46.496151
10191.159043	5599.840000	1837.423828	-16.914576
10191.159043	5599.840000	1836.429688	-40.231861
10191.159043	5599.840000	1835.434570	99.843918
10191.159043	5599.840000	1834.440430	-48.444130
10191.159043	5599.840000	1833.445313	146.799103
10191.159043	5599.840000	1832.450195	185.851074
10191.159043	5599.840000	1831.454102	27.980709
10191.159043	5599.840000	1830.458984	196.647064
10191.159043	5599.840000	1829.462891	70.006378
10191.159043	5599.840000	1828.466797	-61.401142
10191.159043	5599.840000	1827.470703	-3.229499
10191.159043	5599.840000	1826.474609	64.500107
10191.159043	5599.840000	1825.478516	86.618546
10191.159043	5599.840000	1824.481445	-90.319710
10191.159043	5599.840000	1823.484375	90.021072
10191.159043	5599.840000	1822.487305	-62.913986
10191.159043	5599.840000	1821.490234	59.801193
10191.159043	5599.840000	1820.493164	100.984306
10191.159043	5599.840000	1819.495117	-90.249680
10191.159043	5599.840000	1818.498047	37.139740
10191.159043	5599.840000	1817.500000	102.198097
10191.159043	5599.840000	1816.500977	59.467171
10191.159043	5599.840000	1815.502930	33.492451
10191.159043	5599.840000	1814.504883	122.394753
10191.159043	5599.840000	1813.505859	55.699600
10191.159043	5599.840000	1812.506836	-30.129143
10191.159043	5599.840000	1811.507813	8.444014
10191.159043	5599.840000	1810.508789	39.809052
10191.159043	5599.840000	1809.508789	25.709213
10191.159043	5599.840000	1808.508789	57.019089
10191.159043	5599.840000	1807.508789	76.346451
10191.159043	5599.840000	1806.508789	31.121809
10191.159043	5599.840000	1805.508789	-16.494806
10191.159043	5599.840000	1804.508789	40.999397
10191.159043	5599.840000	1803.507813	65.011635
10191.159043	5599.840000	1802.506836	19.742311
10191.159043	5599.840000	1801.505859	72.360245
10191.159043	5599.840000	1800.504883	62.872150
10191.159043	5599.840000	1799.502930	53.366329
10191.159043	5599.840000	1798.501953	36.685833
10191.159043	5599.840000	1797.500000	98.719772
10191.159043	5599.840000	1796.498047	-113.601334
10191.159043	5599.840000	1795.496094	98.641350
10191.159043	5599.840000	1794.493164	-30.188559
10191.159043	5599.840000	1793.491211	-20.720459
10191.159043	5599.840000	1792.488281	-27.963362
10191.159043	5599.840000	1791.485352	72.011894
10191.159043	5599.840000	1790.482422	26.589504
10191.159043	5599.840000	1789.478516	66.918640
10191.159043	5599.840000	1788.475586	121.501961
10191.159043	5599.840000	1787.471680	83.172554
10191.159043	5599.840000	1786.467773	11.504714
10191.159043	5599.840000	1785.463867	120.748383
10191.159043	5599.840000	1784.459961	6.217947
10191.159043	5599.840000	1783.455078	-63.083031
10191.159043	5599.840000	1782.450195	7.979911
10191.159043	5599.840000	1781.445313	-89.882347
10191.159043	5599.840000	1780.440430	52.456612
10191.159043	5599.840000	1779.435547	18.774570
10191.159043	5599.840000	1778.429688	-12.542666
10191.159043	5599.840000	1777.424805	1.289789
10191.159043	5599.840000	1776.418945	10.339470
10191.159043	5599.840000	1775.413086	114.396767
10191.159043	5599.840000	1774.406250	47.362064
10191.159043	5599.840000	1773.400391	53.954998
10191.159043	5599.840000	1772.393555	-5.965054
10191.159043	5599.840000	1771.386719	24.327940
10191.159043	5599.840000	1770.379883	-4.752948
10191.159043	5599.840000	1769.373047	25.482702
10191.159043	5599.840000	1768.365234	-27.362198
10191.159043	5599.840000	1767.358398	24.170063
10191.159043	5599.840000	1766.350586	149.182770
10191.159043	5599.840000	1765.342773	91.533432
10191.159043	5599.840000	1764.334961	0.690347
10191.159043	5599.840000	1763.326172	49.711403
10191.159043	5599.840000	1762.318359	53.663918
10191.159043	5599.840000	1761.309570	104.979591
10191.159043	5599.840000	1760.300781	82.811974
10191.159043	5599.840000	1759.291016	98.525047
10191.159043	5599.840000	1758.282227	95.266403
10191.159043	5599.840000	1757.272461	-121.111046
10191.159043	5599.840000	1756.262695	1.090308
10191.159043	5599.840000	1755.252930	42.749897
10191.159043	5599.840000	1754.243164	-43.412510
10191.159043	5599.840000	1753.233398	-58.587784
10191.159043	5599.840000	1752.222656	18.470745
10191.159043	5599.840000	1751.211914	-27.504040
10191.159043	5599.840000	1750.201172	14.005005
10191.159043	5599.840000	1749.190430	74.388565
10191.159043	5599.840000	1748.179688	-7.093534
10191.159043	5599.840000	1747.167969	-10.583860
10191.159043	5599.840000	1746.156250	-51.899708
10191.159043	5599.840000	1745.144531	13.082040
10191.159043	5599.840000	1744.132813	66.207169
10191.159043	5599.840000	1743.121094	-60.177574
10191.159043	5599.840000	1742.108398	-0.023424
10191.159043	5599.840000	1741.095703	-1.287702
10191.159043	5599.840000	1740.083008	6.866599
10191.159043	5599.840000	1739.070313	85.783813
10191.159043	5599.840000	1738.057617	-73.626305
10191.159043	5599.840000	1737.043945	-37.227188
10191.159043	5599.840000	1736.030273	145.348175
10191.159043	5599.840000	1735.016602	115.628723
10191.159043	5599.840000	1734.002930	-20.181360
10191.159043	5599.840000	1732.989258	-16.904211
10191.159043	5599.840000	1731.974609	2.842731
10191.159043	5599.840000	1730.959961	-78.747223
10191.159043	5599.840000	1729.945313	-101.438591
10191.159043	5599.840000	1728.930664	-27.583307
10191.159043	5599.840000	1727.916016	46.222565
10191.159043	5599.840000	1726.900391	-35.401176
10191.159043	5599.840000	1725.885742	-117.011131
10191.159043	5599.840000	1724.870117	13.183423
10191.159043	5599.840000	1723.853516	-101.392143
10191.159043	5599.840000	1722.837891	-124.197617
10191.159043	5599.840000	1721.822266	-34.120560
10191.159043	5599.840000	1720.805664	-136.925049
10191.159043	5599.840000	1719.789063	-89.242249
10191.159043	5599.840000	1718.772461	-46.299545
10191.159043	5599.840000	1717.754883	90.610619
10191.159043	5599.840000	1716.738281	6.579462
10191.159043	5599.840000	1715.720703	79.957939
10191.159043	5599.840000	1714.703125	19.407000
10191.159043	5599.840000	1713.685547	66.884323
10191.159043	5599.840000	1712.667969	97.889595
10191.159043	5599.840000	1711.649414	-28.419033
10191.159043	5599.840000	1710.630859	28.368475
10191.159043	5599.840000	1709.612305	19.411964
10191.159043	5599.840000	1708.593750	12.786818
10191.159043	5599.840000	1707.575195	-64.223579
10191.159043	5599.840000	1706.555664	102.675568
10191.159043	5599.840000	1705.536133	-77.531380
10191.159043	5599.840000	1704.516602	-27.944332
10191.159043	5599.840000	1703.497070	-27.614849
10191.159043	5599.840000	1702.477539	61.746326
10191.159043	5599.840000	1701.457031	-38.726719
10191.159043	5599.840000	1700.437500	-118.092102
10191.159043	5599.840000	1699.416992	-63.950016
10191.159043	5599.840000	1698.395508	-37.947762
10191.159043	5599.840000	1697.375000	55.925484
10191.159043	5599.840000	1696.354492	-49.214279
10191.159043	5599.840000	1695.333008	-58.382442
10191.159043	5599.840000	1694.311523	133.661407
10191.159043	5599.840000	1693.290039	47.231434
10191.159043	5599.840000	1692.267578	-27.489042
10191.159043	5599.840000	1691.246094	59.160866
10191.159043	5599.840000	1690.223633	77.956718
10191.159043	5599.840000	1689.201172	19.591642
10191.159043	5599.840000	1688.178711	-24.743227
10191.159043	5599.840000	1687.155273	17.377554
10191.159043	5599.840000	1686.132813	29.100857
10191.159043	5599.840000	1685.109375	40.802711
10191.159043	5599.840000	1684.085938	-8.231894
10191.159043	5599.840000	1683.062500	17.454311
10191.159043	5599.840000	1682.039063	24.442617
10191.159043	5599.840000	1681.014648	73.423065
10191.159043	5599.840000	1679.990234	131.705582
10191.159043	5599.840000	1678.965820	17.306540
10191.159043	5599.840000	1677.941406	115.207626
10191.159043	5599.840000	1676.916992	-6.164648
10191.159043	5599.840000	1675.891602	28.719563
10191.159043	5599.840000	1674.866211	-55.316071
10191.159043	5599.840000	1673.840820	-81.059875
10191.159043	5599.840000	1672.815430	-8.929554
10191.159043	5599.840000	1671.790039	9.574651
10191.159043	5599.840000	1670.763672	-46.486206
10191.159043	5599.840000	1669.737305	-16.361153
10191.159043	5599.840000	1668.710938	30.041868
10191.159043	5599.840000	1667.684570	71.760719
10191.159043	5599.840000	1666.658203	-44.827393
10191.159043	5599.840000	1665.630859	-40.367981
10191.159043	5599.840000	1664.603516	52.498371
10191.159043	5599.840000	1663.576172	10.393023
10191.159043	5599.840000	1662.548828	59.005207
10191.159043	5599.840000	1661.520508	102.935471
10191.159043	5599.840000	1660.493164	56.170048
10191.159043	5599.840000	1659.464844	60.551361
10191.159043	5599.840000	1658.436523	148.590729
10191.159043	5599.840000	1657.408203	157.585312
10191.159043	5599.840000	1656.378906	145.657120
10191.159043	5599.840000	1655.350586	131.407654
10191.159043	5599.840000	1654.321289	182.177856
10191.159043	5599.840000	1653.291992	135.405350
10191.159043	5599.840000	1652.261719	107.212601
10191.159043	5599.840000	1651.232422	239.173355
10191.159043	5599.840000	1650.202148	197.037674
10191.159043	5599.840000	1649.171875	233.794464
10191.159043	5599.840000	1648.141602	138.316086
10191.159043	5599.840000	1647.111328	223.762970
10191.159043	5599.840000	1646.080078	313.806427
10191.159043	5599.840000	1645.049805	185.900116
10191.159043	5599.840000	1644.018555	245.777451
10191.159043	5599.840000	1642.987305	173.539688
10191.159043	5599.840000	1641.955078	219.484604
10191.159043	5599.840000	1640.923828	323.324127
10191.159043	5599.840000	1639.891602	304.369354
10191.159043	5599.840000	1638.859375	373.410492
10191.159043	5599.840000	1637.827148	215.543533
10191.159043	5599.840000	1636.794922	235.964066
10191.159043	5599.840000	1635.761719	147.604630
10191.159043	5599.840000	1634.729492	267.519470
10191.159043	5599.840000	1633.696289	213.885880
10191.159043	5599.840000	1632.662109	162.581604
10191.159043	5599.840000	1631.628906	92.801987
10191.159043	5599.840000	1630.594727	240.369354
10191.159043	5599.840000	1629.561523	200.651886
10191.159043	5599.840000	1628.527344	297.299072
10191.159043	5599.840000	1627.493164	128.189987
10191.159043	5599.840000	1626.458008	127.785507
10191.159043	5599.840000	1625.423828	145.864441
10191.159043	5599.840000	1624.388672	60.017712
10191.159043	5599.840000	1623.353516	151.985687
10191.159043	5599.840000	1622.318359	197.752563
10191.159043	5599.840000	1621.282227	185.803146
10191.159043	5599.840000	1620.247070	217.706757
10191.159043	5599.840000	1619.210938	337.264801
10191.159043	5599.840000	1618.174805	214.590179
10191.159043	5599.840000	1617.137695	138.085724
10191.159043	5599.840000	1616.101563	163.068253
10191.159043	5599.840000	1615.064453	86.612640
10191.159043	5599.840000	1614.027344	219.926041
10191.159043	5599.840000	1612.990234	233.367615
10191.159043	5599.840000	1611.953125	306.710602
10191.159043	5599.840000	1610.916016	264.859100
10191.159043	5599.840000	1609.877930	216.117340
10191.159043	5599.840000	1608.839844	158.190460
10191.159043	5599.840000	1607.801758	293.668121
10191.159043	5599.840000	1606.763672	279.493469
10191.159043	5599.840000	1605.724609	279.134827
10191.159043	5599.840000	1604.685547	262.679138
10191.159043	5599.840000	1603.646484	283.041748
10191.159043	5599.840000	1602.607422	271.207275
10191.159043	5599.840000	1601.568359	326.067657
10191.159043	5599.840000	1600.528320	284.356354
10191.159043	5599.840000	1599.489258	148.435379
10191.159043	5599.840000	1598.449219	295.232849
10191.159043	5599.840000	1597.408203	255.873611
10191.159043	5599.840000	1596.368164	370.451996
10191.159043	5599.840000	1595.327148	262.212616
10191.159043	5599.840000	1594.287109	236.694122
10191.159043	5599.840000	1593.246094	360.419952
10191.159043	5599.840000	1592.204102	337.201965
10191.159043	5599.840000	1591.163086	366.791138
10191.159043	5599.840000	1590.121094	320.659180
10191.159043	5599.840000	1589.079102	233.265045
10191.159043	5599.840000	1588.037109	148.210495
10191.159043	5599.840000	1586.995117	81.547112
10191.159043	5599.840000	1585.953125	296.919678
10191.159043	5599.840000	1584.910156	234.859222
10191.159043	5599.840000	1583.867188	392.846039
10191.159043	5599.840000	1582.824219	115.434067
10191.159043	5599.840000	1581.781250	284.863831
10191.159043	5599.840000	1580.737305	229.776794
10191.159043	5599.840000	1579.693359	277.774200
