#X		#Y		#Wave		#Intensity
10118.855851	5291.350000	1999.946289	247.423477
10118.855851	5291.350000	1998.981445	174.954895
10118.855851	5291.350000	1998.017578	2.048854
10118.855851	5291.350000	1997.052734	67.188164
10118.855851	5291.350000	1996.088867	-63.345352
10118.855851	5291.350000	1995.124023	-12.917065
10118.855851	5291.350000	1994.159180	-215.055649
10118.855851	5291.350000	1993.193359	-199.133057
10118.855851	5291.350000	1992.228516	-49.445580
10118.855851	5291.350000	1991.262695	63.126572
10118.855851	5291.350000	1990.296875	17.333368
10118.855851	5291.350000	1989.331055	92.873451
10118.855851	5291.350000	1988.365234	-2.252756
10118.855851	5291.350000	1987.398438	-141.804718
10118.855851	5291.350000	1986.432617	-98.233162
10118.855851	5291.350000	1985.465820	-76.873299
10118.855851	5291.350000	1984.499023	26.118902
10118.855851	5291.350000	1983.532227	94.526276
10118.855851	5291.350000	1982.565430	61.643425
10118.855851	5291.350000	1981.597656	14.000518
10118.855851	5291.350000	1980.629883	40.536186
10118.855851	5291.350000	1979.662109	47.353241
10118.855851	5291.350000	1978.694336	125.829414
10118.855851	5291.350000	1977.726563	142.600311
10118.855851	5291.350000	1976.758789	53.265888
10118.855851	5291.350000	1975.790039	-85.352654
10118.855851	5291.350000	1974.821289	-48.680561
10118.855851	5291.350000	1973.852539	-39.119236
10118.855851	5291.350000	1972.883789	46.944118
10118.855851	5291.350000	1971.915039	56.562279
10118.855851	5291.350000	1970.945313	-113.785500
10118.855851	5291.350000	1969.975586	-91.743294
10118.855851	5291.350000	1969.005859	68.354080
10118.855851	5291.350000	1968.036133	87.957436
10118.855851	5291.350000	1967.066406	147.006912
10118.855851	5291.350000	1966.096680	161.723404
10118.855851	5291.350000	1965.125977	6.517198
10118.855851	5291.350000	1964.155273	-23.014591
10118.855851	5291.350000	1963.184570	77.980858
10118.855851	5291.350000	1962.213867	33.729931
10118.855851	5291.350000	1961.242188	102.731506
10118.855851	5291.350000	1960.271484	144.665161
10118.855851	5291.350000	1959.299805	-138.146408
10118.855851	5291.350000	1958.328125	41.606766
10118.855851	5291.350000	1957.356445	34.405102
10118.855851	5291.350000	1956.384766	69.026894
10118.855851	5291.350000	1955.412109	86.444443
10118.855851	5291.350000	1954.439453	-50.977592
10118.855851	5291.350000	1953.467773	-31.051828
10118.855851	5291.350000	1952.495117	195.272400
10118.855851	5291.350000	1951.521484	148.846802
10118.855851	5291.350000	1950.548828	26.313667
10118.855851	5291.350000	1949.575195	110.113968
10118.855851	5291.350000	1948.601563	58.859467
10118.855851	5291.350000	1947.627930	231.017624
10118.855851	5291.350000	1946.654297	147.876221
10118.855851	5291.350000	1945.680664	-84.907806
10118.855851	5291.350000	1944.706055	52.863342
10118.855851	5291.350000	1943.732422	82.663956
10118.855851	5291.350000	1942.757813	58.506100
10118.855851	5291.350000	1941.783203	2.488902
10118.855851	5291.350000	1940.807617	66.624207
10118.855851	5291.350000	1939.833008	113.584579
10118.855851	5291.350000	1938.857422	170.334351
10118.855851	5291.350000	1937.881836	170.713409
10118.855851	5291.350000	1936.906250	53.510216
10118.855851	5291.350000	1935.930664	12.280828
10118.855851	5291.350000	1934.955078	-24.032461
10118.855851	5291.350000	1933.978516	91.467598
10118.855851	5291.350000	1933.001953	128.593613
10118.855851	5291.350000	1932.025391	-64.352707
10118.855851	5291.350000	1931.048828	38.859089
10118.855851	5291.350000	1930.072266	225.214844
10118.855851	5291.350000	1929.094727	117.971245
10118.855851	5291.350000	1928.118164	-123.741501
10118.855851	5291.350000	1927.140625	-111.069160
10118.855851	5291.350000	1926.163086	53.169136
10118.855851	5291.350000	1925.184570	53.578766
10118.855851	5291.350000	1924.207031	46.654732
10118.855851	5291.350000	1923.228516	-28.683739
10118.855851	5291.350000	1922.250000	15.704718
10118.855851	5291.350000	1921.271484	-59.606537
10118.855851	5291.350000	1920.292969	-200.826859
10118.855851	5291.350000	1919.314453	-0.186061
10118.855851	5291.350000	1918.334961	-65.701263
10118.855851	5291.350000	1917.355469	-131.197342
10118.855851	5291.350000	1916.375977	-11.221966
10118.855851	5291.350000	1915.396484	40.391071
10118.855851	5291.350000	1914.416992	-122.674446
10118.855851	5291.350000	1913.436523	-49.123077
10118.855851	5291.350000	1912.457031	19.517931
10118.855851	5291.350000	1911.476563	97.877823
10118.855851	5291.350000	1910.496094	88.454582
10118.855851	5291.350000	1909.515625	1.044367
10118.855851	5291.350000	1908.534180	-54.666756
10118.855851	5291.350000	1907.552734	52.851482
10118.855851	5291.350000	1906.572266	-102.722672
10118.855851	5291.350000	1905.590820	9.618413
10118.855851	5291.350000	1904.608398	-11.999493
10118.855851	5291.350000	1903.626953	73.489838
10118.855851	5291.350000	1902.644531	51.850864
10118.855851	5291.350000	1901.663086	-57.387253
10118.855851	5291.350000	1900.680664	-10.890735
10118.855851	5291.350000	1899.698242	93.957237
10118.855851	5291.350000	1898.714844	-10.392611
10118.855851	5291.350000	1897.732422	60.356571
10118.855851	5291.350000	1896.749023	19.240179
10118.855851	5291.350000	1895.765625	36.464451
10118.855851	5291.350000	1894.782227	-101.856956
10118.855851	5291.350000	1893.798828	31.988253
10118.855851	5291.350000	1892.814453	37.023560
10118.855851	5291.350000	1891.831055	17.759823
10118.855851	5291.350000	1890.846680	51.915478
10118.855851	5291.350000	1889.862305	5.928306
10118.855851	5291.350000	1888.877930	76.464249
10118.855851	5291.350000	1887.892578	-141.846298
10118.855851	5291.350000	1886.908203	69.407547
10118.855851	5291.350000	1885.922852	35.538887
10118.855851	5291.350000	1884.937500	-10.455336
10118.855851	5291.350000	1883.952148	-3.089817
10118.855851	5291.350000	1882.965820	-41.807915
10118.855851	5291.350000	1881.980469	6.751583
10118.855851	5291.350000	1880.994141	26.195160
10118.855851	5291.350000	1880.007813	14.117972
10118.855851	5291.350000	1879.021484	-123.955582
10118.855851	5291.350000	1878.035156	-53.659306
10118.855851	5291.350000	1877.047852	144.962341
10118.855851	5291.350000	1876.061523	86.819542
10118.855851	5291.350000	1875.074219	-48.786968
10118.855851	5291.350000	1874.086914	9.294690
10118.855851	5291.350000	1873.098633	-46.404774
10118.855851	5291.350000	1872.111328	52.768093
10118.855851	5291.350000	1871.123047	18.833189
10118.855851	5291.350000	1870.135742	96.165199
10118.855851	5291.350000	1869.147461	-17.591970
10118.855851	5291.350000	1868.158203	69.366356
10118.855851	5291.350000	1867.169922	120.020409
10118.855851	5291.350000	1866.180664	-10.629517
10118.855851	5291.350000	1865.192383	112.494499
10118.855851	5291.350000	1864.203125	3.618310
10118.855851	5291.350000	1863.213867	-182.527451
10118.855851	5291.350000	1862.223633	112.002426
10118.855851	5291.350000	1861.234375	39.376274
10118.855851	5291.350000	1860.244141	-110.490669
10118.855851	5291.350000	1859.253906	-52.724636
10118.855851	5291.350000	1858.263672	-28.777725
10118.855851	5291.350000	1857.273438	-41.043423
10118.855851	5291.350000	1856.282227	-50.903240
10118.855851	5291.350000	1855.291992	151.486588
10118.855851	5291.350000	1854.300781	-85.111618
10118.855851	5291.350000	1853.309570	-29.888988
10118.855851	5291.350000	1852.317383	54.229008
10118.855851	5291.350000	1851.326172	66.001259
10118.855851	5291.350000	1850.333984	12.694891
10118.855851	5291.350000	1849.342773	48.543438
10118.855851	5291.350000	1848.350586	125.317413
10118.855851	5291.350000	1847.357422	-82.135475
10118.855851	5291.350000	1846.365234	-80.030846
10118.855851	5291.350000	1845.372070	-73.122643
10118.855851	5291.350000	1844.379883	-46.968746
10118.855851	5291.350000	1843.386719	123.557724
10118.855851	5291.350000	1842.393555	34.151516
10118.855851	5291.350000	1841.399414	-14.335581
10118.855851	5291.350000	1840.406250	-202.313904
10118.855851	5291.350000	1839.412109	105.146095
10118.855851	5291.350000	1838.417969	47.028763
10118.855851	5291.350000	1837.423828	34.597370
10118.855851	5291.350000	1836.429688	43.792450
10118.855851	5291.350000	1835.434570	230.790939
10118.855851	5291.350000	1834.440430	158.244141
10118.855851	5291.350000	1833.445313	4.045357
10118.855851	5291.350000	1832.450195	-73.253128
10118.855851	5291.350000	1831.454102	-23.272739
10118.855851	5291.350000	1830.458984	41.086109
10118.855851	5291.350000	1829.462891	88.609764
10118.855851	5291.350000	1828.466797	-5.479073
10118.855851	5291.350000	1827.470703	1.231325
10118.855851	5291.350000	1826.474609	-114.410789
10118.855851	5291.350000	1825.478516	103.362259
10118.855851	5291.350000	1824.481445	-12.272644
10118.855851	5291.350000	1823.484375	-75.125969
10118.855851	5291.350000	1822.487305	-85.227875
10118.855851	5291.350000	1821.490234	-64.177383
10118.855851	5291.350000	1820.493164	31.138407
10118.855851	5291.350000	1819.495117	138.388535
10118.855851	5291.350000	1818.498047	89.901268
10118.855851	5291.350000	1817.500000	-68.736420
10118.855851	5291.350000	1816.500977	-19.014671
10118.855851	5291.350000	1815.502930	-33.951862
10118.855851	5291.350000	1814.504883	235.929138
10118.855851	5291.350000	1813.505859	36.674282
10118.855851	5291.350000	1812.506836	95.882835
10118.855851	5291.350000	1811.507813	37.850334
10118.855851	5291.350000	1810.508789	101.806854
10118.855851	5291.350000	1809.508789	165.731445
10118.855851	5291.350000	1808.508789	88.572998
10118.855851	5291.350000	1807.508789	90.316986
10118.855851	5291.350000	1806.508789	-15.487659
10118.855851	5291.350000	1805.508789	41.219723
10118.855851	5291.350000	1804.508789	21.454369
10118.855851	5291.350000	1803.507813	85.286118
10118.855851	5291.350000	1802.506836	98.940269
10118.855851	5291.350000	1801.505859	117.358826
10118.855851	5291.350000	1800.504883	21.183487
10118.855851	5291.350000	1799.502930	15.731640
10118.855851	5291.350000	1798.501953	222.651077
10118.855851	5291.350000	1797.500000	-30.965559
10118.855851	5291.350000	1796.498047	118.625610
10118.855851	5291.350000	1795.496094	117.910042
10118.855851	5291.350000	1794.493164	-11.569320
10118.855851	5291.350000	1793.491211	-126.698830
10118.855851	5291.350000	1792.488281	13.244500
10118.855851	5291.350000	1791.485352	43.509926
10118.855851	5291.350000	1790.482422	85.672752
10118.855851	5291.350000	1789.478516	89.699722
10118.855851	5291.350000	1788.475586	38.943787
10118.855851	5291.350000	1787.471680	112.026321
10118.855851	5291.350000	1786.467773	13.660475
10118.855851	5291.350000	1785.463867	-18.021816
10118.855851	5291.350000	1784.459961	62.158752
10118.855851	5291.350000	1783.455078	151.822235
10118.855851	5291.350000	1782.450195	136.772598
10118.855851	5291.350000	1781.445313	-132.778137
10118.855851	5291.350000	1780.440430	-33.626266
10118.855851	5291.350000	1779.435547	-5.843943
10118.855851	5291.350000	1778.429688	78.975983
10118.855851	5291.350000	1777.424805	223.180634
10118.855851	5291.350000	1776.418945	44.151588
10118.855851	5291.350000	1775.413086	45.750946
10118.855851	5291.350000	1774.406250	28.342878
10118.855851	5291.350000	1773.400391	56.064068
10118.855851	5291.350000	1772.393555	52.903027
10118.855851	5291.350000	1771.386719	182.686188
10118.855851	5291.350000	1770.379883	75.060150
10118.855851	5291.350000	1769.373047	-20.661524
10118.855851	5291.350000	1768.365234	54.482498
10118.855851	5291.350000	1767.358398	41.825203
10118.855851	5291.350000	1766.350586	124.040138
10118.855851	5291.350000	1765.342773	-0.082863
10118.855851	5291.350000	1764.334961	-62.517345
10118.855851	5291.350000	1763.326172	97.888451
10118.855851	5291.350000	1762.318359	-106.742447
10118.855851	5291.350000	1761.309570	141.280106
10118.855851	5291.350000	1760.300781	43.323082
10118.855851	5291.350000	1759.291016	94.623207
10118.855851	5291.350000	1758.282227	86.700470
10118.855851	5291.350000	1757.272461	36.159077
10118.855851	5291.350000	1756.262695	18.778116
10118.855851	5291.350000	1755.252930	195.481506
10118.855851	5291.350000	1754.243164	-58.561245
10118.855851	5291.350000	1753.233398	-47.525818
10118.855851	5291.350000	1752.222656	131.451447
10118.855851	5291.350000	1751.211914	33.653549
10118.855851	5291.350000	1750.201172	91.953606
10118.855851	5291.350000	1749.190430	34.389309
10118.855851	5291.350000	1748.179688	-138.972366
10118.855851	5291.350000	1747.167969	-97.217453
10118.855851	5291.350000	1746.156250	-93.282211
10118.855851	5291.350000	1745.144531	-37.377983
10118.855851	5291.350000	1744.132813	110.617386
10118.855851	5291.350000	1743.121094	-69.679321
10118.855851	5291.350000	1742.108398	139.650253
10118.855851	5291.350000	1741.095703	18.428629
10118.855851	5291.350000	1740.083008	-131.067245
10118.855851	5291.350000	1739.070313	30.963482
10118.855851	5291.350000	1738.057617	-35.905865
10118.855851	5291.350000	1737.043945	-112.185135
10118.855851	5291.350000	1736.030273	122.855408
10118.855851	5291.350000	1735.016602	129.099640
10118.855851	5291.350000	1734.002930	-55.603260
10118.855851	5291.350000	1732.989258	-28.113550
10118.855851	5291.350000	1731.974609	11.148280
10118.855851	5291.350000	1730.959961	-161.645172
10118.855851	5291.350000	1729.945313	-28.148130
10118.855851	5291.350000	1728.930664	37.000328
10118.855851	5291.350000	1727.916016	10.294412
10118.855851	5291.350000	1726.900391	91.891769
10118.855851	5291.350000	1725.885742	44.004196
10118.855851	5291.350000	1724.870117	130.274063
10118.855851	5291.350000	1723.853516	30.635027
10118.855851	5291.350000	1722.837891	-31.324167
10118.855851	5291.350000	1721.822266	87.843185
10118.855851	5291.350000	1720.805664	-112.839523
10118.855851	5291.350000	1719.789063	-191.188995
10118.855851	5291.350000	1718.772461	-220.143127
10118.855851	5291.350000	1717.754883	42.333656
10118.855851	5291.350000	1716.738281	-38.343769
10118.855851	5291.350000	1715.720703	29.014378
10118.855851	5291.350000	1714.703125	166.812576
10118.855851	5291.350000	1713.685547	20.409800
10118.855851	5291.350000	1712.667969	-17.931202
10118.855851	5291.350000	1711.649414	91.633789
10118.855851	5291.350000	1710.630859	-31.194366
10118.855851	5291.350000	1709.612305	122.920822
10118.855851	5291.350000	1708.593750	-39.744198
10118.855851	5291.350000	1707.575195	-101.480873
10118.855851	5291.350000	1706.555664	-3.718398
10118.855851	5291.350000	1705.536133	-4.470298
10118.855851	5291.350000	1704.516602	48.700024
10118.855851	5291.350000	1703.497070	52.632477
10118.855851	5291.350000	1702.477539	133.898911
10118.855851	5291.350000	1701.457031	236.222977
10118.855851	5291.350000	1700.437500	1.191265
10118.855851	5291.350000	1699.416992	49.640675
10118.855851	5291.350000	1698.395508	58.266098
10118.855851	5291.350000	1697.375000	-8.023607
10118.855851	5291.350000	1696.354492	115.313568
10118.855851	5291.350000	1695.333008	-9.462571
10118.855851	5291.350000	1694.311523	169.988907
10118.855851	5291.350000	1693.290039	-85.746002
10118.855851	5291.350000	1692.267578	138.096924
10118.855851	5291.350000	1691.246094	-70.756149
10118.855851	5291.350000	1690.223633	-27.021475
10118.855851	5291.350000	1689.201172	-4.337157
10118.855851	5291.350000	1688.178711	97.804680
10118.855851	5291.350000	1687.155273	12.976878
10118.855851	5291.350000	1686.132813	98.731239
10118.855851	5291.350000	1685.109375	79.346176
10118.855851	5291.350000	1684.085938	31.949188
10118.855851	5291.350000	1683.062500	42.947086
10118.855851	5291.350000	1682.039063	116.974213
10118.855851	5291.350000	1681.014648	-35.418541
10118.855851	5291.350000	1679.990234	71.272766
10118.855851	5291.350000	1678.965820	128.933456
10118.855851	5291.350000	1677.941406	-30.356812
10118.855851	5291.350000	1676.916992	-35.657055
10118.855851	5291.350000	1675.891602	180.561188
10118.855851	5291.350000	1674.866211	5.048419
10118.855851	5291.350000	1673.840820	41.712898
10118.855851	5291.350000	1672.815430	197.217789
10118.855851	5291.350000	1671.790039	101.036293
10118.855851	5291.350000	1670.763672	-16.069202
10118.855851	5291.350000	1669.737305	-58.595306
10118.855851	5291.350000	1668.710938	176.001022
10118.855851	5291.350000	1667.684570	140.449829
10118.855851	5291.350000	1666.658203	-65.001755
10118.855851	5291.350000	1665.630859	57.769043
10118.855851	5291.350000	1664.603516	254.955032
10118.855851	5291.350000	1663.576172	191.522598
10118.855851	5291.350000	1662.548828	156.030899
10118.855851	5291.350000	1661.520508	250.781906
10118.855851	5291.350000	1660.493164	147.880341
10118.855851	5291.350000	1659.464844	247.257782
10118.855851	5291.350000	1658.436523	128.139725
10118.855851	5291.350000	1657.408203	162.433426
10118.855851	5291.350000	1656.378906	431.360870
10118.855851	5291.350000	1655.350586	449.336761
10118.855851	5291.350000	1654.321289	221.148697
10118.855851	5291.350000	1653.291992	294.894684
10118.855851	5291.350000	1652.261719	278.083313
10118.855851	5291.350000	1651.232422	272.890961
10118.855851	5291.350000	1650.202148	5.491501
10118.855851	5291.350000	1649.171875	165.089874
10118.855851	5291.350000	1648.141602	252.725677
10118.855851	5291.350000	1647.111328	440.058655
10118.855851	5291.350000	1646.080078	260.971008
10118.855851	5291.350000	1645.049805	290.603363
10118.855851	5291.350000	1644.018555	417.577911
10118.855851	5291.350000	1642.987305	67.137154
10118.855851	5291.350000	1641.955078	217.288773
10118.855851	5291.350000	1640.923828	184.391144
10118.855851	5291.350000	1639.891602	262.680786
10118.855851	5291.350000	1638.859375	364.103241
10118.855851	5291.350000	1637.827148	294.177185
10118.855851	5291.350000	1636.794922	233.544739
10118.855851	5291.350000	1635.761719	230.797653
10118.855851	5291.350000	1634.729492	339.120850
10118.855851	5291.350000	1633.696289	412.709442
10118.855851	5291.350000	1632.662109	389.137268
10118.855851	5291.350000	1631.628906	256.899750
10118.855851	5291.350000	1630.594727	328.173492
10118.855851	5291.350000	1629.561523	369.379669
10118.855851	5291.350000	1628.527344	262.669556
10118.855851	5291.350000	1627.493164	158.319641
10118.855851	5291.350000	1626.458008	229.590729
10118.855851	5291.350000	1625.423828	217.693939
10118.855851	5291.350000	1624.388672	372.076508
10118.855851	5291.350000	1623.353516	237.806915
10118.855851	5291.350000	1622.318359	198.240723
10118.855851	5291.350000	1621.282227	133.311569
10118.855851	5291.350000	1620.247070	338.391632
10118.855851	5291.350000	1619.210938	197.346695
10118.855851	5291.350000	1618.174805	215.519623
10118.855851	5291.350000	1617.137695	321.326538
10118.855851	5291.350000	1616.101563	284.151733
10118.855851	5291.350000	1615.064453	436.027588
10118.855851	5291.350000	1614.027344	315.891144
10118.855851	5291.350000	1612.990234	253.418762
10118.855851	5291.350000	1611.953125	345.340973
10118.855851	5291.350000	1610.916016	303.638336
10118.855851	5291.350000	1609.877930	227.415985
10118.855851	5291.350000	1608.839844	360.764252
10118.855851	5291.350000	1607.801758	413.497192
10118.855851	5291.350000	1606.763672	346.535309
10118.855851	5291.350000	1605.724609	344.041840
10118.855851	5291.350000	1604.685547	327.756073
10118.855851	5291.350000	1603.646484	490.909454
10118.855851	5291.350000	1602.607422	467.722839
10118.855851	5291.350000	1601.568359	414.663025
10118.855851	5291.350000	1600.528320	334.047729
10118.855851	5291.350000	1599.489258	324.728180
10118.855851	5291.350000	1598.449219	336.105225
10118.855851	5291.350000	1597.408203	349.785461
10118.855851	5291.350000	1596.368164	423.197205
10118.855851	5291.350000	1595.327148	512.669128
10118.855851	5291.350000	1594.287109	436.786743
10118.855851	5291.350000	1593.246094	399.974487
10118.855851	5291.350000	1592.204102	461.886780
10118.855851	5291.350000	1591.163086	599.519165
10118.855851	5291.350000	1590.121094	365.406555
10118.855851	5291.350000	1589.079102	422.736206
10118.855851	5291.350000	1588.037109	392.899811
10118.855851	5291.350000	1586.995117	425.000946
10118.855851	5291.350000	1585.953125	248.469360
10118.855851	5291.350000	1584.910156	324.161957
10118.855851	5291.350000	1583.867188	473.173218
10118.855851	5291.350000	1582.824219	280.732666
10118.855851	5291.350000	1581.781250	338.083588
10118.855851	5291.350000	1580.737305	292.355347
