#X		#Y		#Wave		#Intensity
9066.756915	4933.590000	1999.946289	-78.922165
9066.756915	4933.590000	1998.981445	-23.102457
9066.756915	4933.590000	1998.017578	113.825432
9066.756915	4933.590000	1997.052734	-81.344269
9066.756915	4933.590000	1996.088867	87.795784
9066.756915	4933.590000	1995.124023	108.261116
9066.756915	4933.590000	1994.159180	103.972054
9066.756915	4933.590000	1993.193359	45.226105
9066.756915	4933.590000	1992.228516	132.596222
9066.756915	4933.590000	1991.262695	202.625183
9066.756915	4933.590000	1990.296875	101.880241
9066.756915	4933.590000	1989.331055	18.512991
9066.756915	4933.590000	1988.365234	-49.960205
9066.756915	4933.590000	1987.398438	54.756577
9066.756915	4933.590000	1986.432617	-60.648216
9066.756915	4933.590000	1985.465820	46.541561
9066.756915	4933.590000	1984.499023	146.293655
9066.756915	4933.590000	1983.532227	40.876884
9066.756915	4933.590000	1982.565430	19.538809
9066.756915	4933.590000	1981.597656	146.471481
9066.756915	4933.590000	1980.629883	-45.295170
9066.756915	4933.590000	1979.662109	59.408562
9066.756915	4933.590000	1978.694336	70.253586
9066.756915	4933.590000	1977.726563	4.574635
9066.756915	4933.590000	1976.758789	62.360256
9066.756915	4933.590000	1975.790039	1.675170
9066.756915	4933.590000	1974.821289	232.200821
9066.756915	4933.590000	1973.852539	161.670654
9066.756915	4933.590000	1972.883789	41.849548
9066.756915	4933.590000	1971.915039	50.330090
9066.756915	4933.590000	1970.945313	108.136543
9066.756915	4933.590000	1969.975586	52.534519
9066.756915	4933.590000	1969.005859	6.827510
9066.756915	4933.590000	1968.036133	-31.454914
9066.756915	4933.590000	1967.066406	53.486107
9066.756915	4933.590000	1966.096680	-66.055206
9066.756915	4933.590000	1965.125977	53.370087
9066.756915	4933.590000	1964.155273	0.388824
9066.756915	4933.590000	1963.184570	-30.400566
9066.756915	4933.590000	1962.213867	-71.011238
9066.756915	4933.590000	1961.242188	9.002153
9066.756915	4933.590000	1960.271484	2.875276
9066.756915	4933.590000	1959.299805	-17.998293
9066.756915	4933.590000	1958.328125	66.919098
9066.756915	4933.590000	1957.356445	55.904106
9066.756915	4933.590000	1956.384766	-78.037621
9066.756915	4933.590000	1955.412109	-39.829319
9066.756915	4933.590000	1954.439453	-36.034698
9066.756915	4933.590000	1953.467773	58.697994
9066.756915	4933.590000	1952.495117	-23.499926
9066.756915	4933.590000	1951.521484	-39.328579
9066.756915	4933.590000	1950.548828	-87.069138
9066.756915	4933.590000	1949.575195	-66.023079
9066.756915	4933.590000	1948.601563	28.682327
9066.756915	4933.590000	1947.627930	-16.557602
9066.756915	4933.590000	1946.654297	21.675875
9066.756915	4933.590000	1945.680664	153.150879
9066.756915	4933.590000	1944.706055	46.609077
9066.756915	4933.590000	1943.732422	13.704720
9066.756915	4933.590000	1942.757813	88.730705
9066.756915	4933.590000	1941.783203	46.041634
9066.756915	4933.590000	1940.807617	-28.492590
9066.756915	4933.590000	1939.833008	36.722607
9066.756915	4933.590000	1938.857422	1.446040
9066.756915	4933.590000	1937.881836	83.800087
9066.756915	4933.590000	1936.906250	-127.834831
9066.756915	4933.590000	1935.930664	-25.876385
9066.756915	4933.590000	1934.955078	39.320248
9066.756915	4933.590000	1933.978516	-22.814177
9066.756915	4933.590000	1933.001953	76.643707
9066.756915	4933.590000	1932.025391	48.805038
9066.756915	4933.590000	1931.048828	62.582951
9066.756915	4933.590000	1930.072266	-11.711960
9066.756915	4933.590000	1929.094727	80.360626
9066.756915	4933.590000	1928.118164	96.591873
9066.756915	4933.590000	1927.140625	-38.776794
9066.756915	4933.590000	1926.163086	75.271935
9066.756915	4933.590000	1925.184570	-8.700261
9066.756915	4933.590000	1924.207031	41.773994
9066.756915	4933.590000	1923.228516	4.274811
9066.756915	4933.590000	1922.250000	-77.176384
9066.756915	4933.590000	1921.271484	-7.161075
9066.756915	4933.590000	1920.292969	-51.939220
9066.756915	4933.590000	1919.314453	-6.359402
9066.756915	4933.590000	1918.334961	63.618870
9066.756915	4933.590000	1917.355469	23.748686
9066.756915	4933.590000	1916.375977	40.021557
9066.756915	4933.590000	1915.396484	46.533970
9066.756915	4933.590000	1914.416992	-17.689844
9066.756915	4933.590000	1913.436523	154.676514
9066.756915	4933.590000	1912.457031	144.107849
9066.756915	4933.590000	1911.476563	-39.542648
9066.756915	4933.590000	1910.496094	-11.065370
9066.756915	4933.590000	1909.515625	10.093693
9066.756915	4933.590000	1908.534180	-88.140900
9066.756915	4933.590000	1907.552734	62.141617
9066.756915	4933.590000	1906.572266	10.216009
9066.756915	4933.590000	1905.590820	82.504837
9066.756915	4933.590000	1904.608398	162.073120
9066.756915	4933.590000	1903.626953	32.269611
9066.756915	4933.590000	1902.644531	33.940746
9066.756915	4933.590000	1901.663086	33.179920
9066.756915	4933.590000	1900.680664	95.675583
9066.756915	4933.590000	1899.698242	-9.687388
9066.756915	4933.590000	1898.714844	23.612263
9066.756915	4933.590000	1897.732422	-1.455605
9066.756915	4933.590000	1896.749023	-26.513311
9066.756915	4933.590000	1895.765625	152.609650
9066.756915	4933.590000	1894.782227	105.662598
9066.756915	4933.590000	1893.798828	-67.610504
9066.756915	4933.590000	1892.814453	70.123634
9066.756915	4933.590000	1891.831055	-30.214220
9066.756915	4933.590000	1890.846680	37.040001
9066.756915	4933.590000	1889.862305	50.855389
9066.756915	4933.590000	1888.877930	115.640694
9066.756915	4933.590000	1887.892578	-76.856987
9066.756915	4933.590000	1886.908203	17.044609
9066.756915	4933.590000	1885.922852	91.501488
9066.756915	4933.590000	1884.937500	-6.288258
9066.756915	4933.590000	1883.952148	136.046524
9066.756915	4933.590000	1882.965820	-136.295883
9066.756915	4933.590000	1881.980469	-57.023598
9066.756915	4933.590000	1880.994141	7.674404
9066.756915	4933.590000	1880.007813	-17.317253
9066.756915	4933.590000	1879.021484	57.036167
9066.756915	4933.590000	1878.035156	53.841423
9066.756915	4933.590000	1877.047852	-65.608986
9066.756915	4933.590000	1876.061523	-32.462360
9066.756915	4933.590000	1875.074219	-81.646942
9066.756915	4933.590000	1874.086914	128.188446
9066.756915	4933.590000	1873.098633	-88.005241
9066.756915	4933.590000	1872.111328	49.154739
9066.756915	4933.590000	1871.123047	-9.699333
9066.756915	4933.590000	1870.135742	-49.184689
9066.756915	4933.590000	1869.147461	68.532349
9066.756915	4933.590000	1868.158203	-65.259102
9066.756915	4933.590000	1867.169922	-29.784389
9066.756915	4933.590000	1866.180664	155.524994
9066.756915	4933.590000	1865.192383	24.195427
9066.756915	4933.590000	1864.203125	-34.607918
9066.756915	4933.590000	1863.213867	-33.003769
9066.756915	4933.590000	1862.223633	-19.329803
9066.756915	4933.590000	1861.234375	42.628132
9066.756915	4933.590000	1860.244141	-8.913302
9066.756915	4933.590000	1859.253906	38.524837
9066.756915	4933.590000	1858.263672	35.258797
9066.756915	4933.590000	1857.273438	3.033281
9066.756915	4933.590000	1856.282227	110.734955
9066.756915	4933.590000	1855.291992	-10.749104
9066.756915	4933.590000	1854.300781	55.905609
9066.756915	4933.590000	1853.309570	76.717865
9066.756915	4933.590000	1852.317383	37.249123
9066.756915	4933.590000	1851.326172	113.477318
9066.756915	4933.590000	1850.333984	33.036976
9066.756915	4933.590000	1849.342773	61.036930
9066.756915	4933.590000	1848.350586	-2.516748
9066.756915	4933.590000	1847.357422	261.483917
9066.756915	4933.590000	1846.365234	-26.035528
9066.756915	4933.590000	1845.372070	-75.115944
9066.756915	4933.590000	1844.379883	87.630653
9066.756915	4933.590000	1843.386719	-60.138134
9066.756915	4933.590000	1842.393555	8.689335
9066.756915	4933.590000	1841.399414	192.953247
9066.756915	4933.590000	1840.406250	47.627075
9066.756915	4933.590000	1839.412109	53.845192
9066.756915	4933.590000	1838.417969	-16.885469
9066.756915	4933.590000	1837.423828	-75.579704
9066.756915	4933.590000	1836.429688	24.362452
9066.756915	4933.590000	1835.434570	167.509888
9066.756915	4933.590000	1834.440430	130.407486
9066.756915	4933.590000	1833.445313	59.680714
9066.756915	4933.590000	1832.450195	37.001862
9066.756915	4933.590000	1831.454102	83.953949
9066.756915	4933.590000	1830.458984	15.645899
9066.756915	4933.590000	1829.462891	-26.244879
9066.756915	4933.590000	1828.466797	-63.330975
9066.756915	4933.590000	1827.470703	-16.437719
9066.756915	4933.590000	1826.474609	-12.752741
9066.756915	4933.590000	1825.478516	0.513626
9066.756915	4933.590000	1824.481445	-36.593746
9066.756915	4933.590000	1823.484375	118.102402
9066.756915	4933.590000	1822.487305	68.978661
9066.756915	4933.590000	1821.490234	36.638172
9066.756915	4933.590000	1820.493164	9.090580
9066.756915	4933.590000	1819.495117	113.304535
9066.756915	4933.590000	1818.498047	25.847979
9066.756915	4933.590000	1817.500000	115.626587
9066.756915	4933.590000	1816.500977	-65.202332
9066.756915	4933.590000	1815.502930	70.019096
9066.756915	4933.590000	1814.504883	176.455536
9066.756915	4933.590000	1813.505859	215.835098
9066.756915	4933.590000	1812.506836	87.709465
9066.756915	4933.590000	1811.507813	26.597807
9066.756915	4933.590000	1810.508789	44.420174
9066.756915	4933.590000	1809.508789	-62.119286
9066.756915	4933.590000	1808.508789	-104.082130
9066.756915	4933.590000	1807.508789	-40.870071
9066.756915	4933.590000	1806.508789	146.575607
9066.756915	4933.590000	1805.508789	28.097120
9066.756915	4933.590000	1804.508789	12.373298
9066.756915	4933.590000	1803.507813	58.741280
9066.756915	4933.590000	1802.506836	-21.487116
9066.756915	4933.590000	1801.505859	46.330101
9066.756915	4933.590000	1800.504883	63.978001
9066.756915	4933.590000	1799.502930	74.444542
9066.756915	4933.590000	1798.501953	139.776459
9066.756915	4933.590000	1797.500000	11.821831
9066.756915	4933.590000	1796.498047	65.184799
9066.756915	4933.590000	1795.496094	-5.499705
9066.756915	4933.590000	1794.493164	121.732773
9066.756915	4933.590000	1793.491211	136.857346
9066.756915	4933.590000	1792.488281	-10.117885
9066.756915	4933.590000	1791.485352	45.507248
9066.756915	4933.590000	1790.482422	29.618160
9066.756915	4933.590000	1789.478516	23.247866
9066.756915	4933.590000	1788.475586	121.660187
9066.756915	4933.590000	1787.471680	27.138245
9066.756915	4933.590000	1786.467773	56.437946
9066.756915	4933.590000	1785.463867	83.330956
9066.756915	4933.590000	1784.459961	19.762272
9066.756915	4933.590000	1783.455078	37.102230
9066.756915	4933.590000	1782.450195	30.629993
9066.756915	4933.590000	1781.445313	-56.726028
9066.756915	4933.590000	1780.440430	46.182541
9066.756915	4933.590000	1779.435547	63.441093
9066.756915	4933.590000	1778.429688	75.921852
9066.756915	4933.590000	1777.424805	83.629456
9066.756915	4933.590000	1776.418945	105.574509
9066.756915	4933.590000	1775.413086	8.703532
9066.756915	4933.590000	1774.406250	-52.517067
9066.756915	4933.590000	1773.400391	45.390621
9066.756915	4933.590000	1772.393555	17.396317
9066.756915	4933.590000	1771.386719	-88.946457
9066.756915	4933.590000	1770.379883	-17.247366
9066.756915	4933.590000	1769.373047	49.662014
9066.756915	4933.590000	1768.365234	-32.950241
9066.756915	4933.590000	1767.358398	-25.402155
9066.756915	4933.590000	1766.350586	-17.874580
9066.756915	4933.590000	1765.342773	120.056229
9066.756915	4933.590000	1764.334961	44.539406
9066.756915	4933.590000	1763.326172	123.110550
9066.756915	4933.590000	1762.318359	140.017227
9066.756915	4933.590000	1761.309570	2.880429
9066.756915	4933.590000	1760.300781	-37.089378
9066.756915	4933.590000	1759.291016	36.631870
9066.756915	4933.590000	1758.282227	8.477896
9066.756915	4933.590000	1757.272461	39.509537
9066.756915	4933.590000	1756.262695	84.715874
9066.756915	4933.590000	1755.252930	73.084450
9066.756915	4933.590000	1754.243164	78.004890
9066.756915	4933.590000	1753.233398	40.319973
9066.756915	4933.590000	1752.222656	26.285595
9066.756915	4933.590000	1751.211914	54.809628
9066.756915	4933.590000	1750.201172	-20.734880
9066.756915	4933.590000	1749.190430	-34.801060
9066.756915	4933.590000	1748.179688	92.940926
9066.756915	4933.590000	1747.167969	55.190521
9066.756915	4933.590000	1746.156250	-48.719761
9066.756915	4933.590000	1745.144531	-29.767450
9066.756915	4933.590000	1744.132813	-46.267475
9066.756915	4933.590000	1743.121094	-13.188581
9066.756915	4933.590000	1742.108398	22.219875
9066.756915	4933.590000	1741.095703	-48.625511
9066.756915	4933.590000	1740.083008	-51.019161
9066.756915	4933.590000	1739.070313	-10.955924
9066.756915	4933.590000	1738.057617	43.229748
9066.756915	4933.590000	1737.043945	-67.733795
9066.756915	4933.590000	1736.030273	2.913882
9066.756915	4933.590000	1735.016602	141.893997
9066.756915	4933.590000	1734.002930	-46.868858
9066.756915	4933.590000	1732.989258	-25.811668
9066.756915	4933.590000	1731.974609	35.278229
9066.756915	4933.590000	1730.959961	-59.168720
9066.756915	4933.590000	1729.945313	67.825790
9066.756915	4933.590000	1728.930664	32.252518
9066.756915	4933.590000	1727.916016	64.960625
9066.756915	4933.590000	1726.900391	149.430542
9066.756915	4933.590000	1725.885742	-22.706676
9066.756915	4933.590000	1724.870117	-27.711912
9066.756915	4933.590000	1723.853516	9.617469
9066.756915	4933.590000	1722.837891	-105.988724
9066.756915	4933.590000	1721.822266	-35.762985
9066.756915	4933.590000	1720.805664	1.496212
9066.756915	4933.590000	1719.789063	-12.998515
9066.756915	4933.590000	1718.772461	-107.425087
9066.756915	4933.590000	1717.754883	-185.382797
9066.756915	4933.590000	1716.738281	119.676720
9066.756915	4933.590000	1715.720703	48.720089
9066.756915	4933.590000	1714.703125	1.262500
9066.756915	4933.590000	1713.685547	-27.406670
9066.756915	4933.590000	1712.667969	35.487305
9066.756915	4933.590000	1711.649414	-19.033846
9066.756915	4933.590000	1710.630859	22.676723
9066.756915	4933.590000	1709.612305	-97.556938
9066.756915	4933.590000	1708.593750	138.847534
9066.756915	4933.590000	1707.575195	-25.961855
9066.756915	4933.590000	1706.555664	121.186485
9066.756915	4933.590000	1705.536133	31.442154
9066.756915	4933.590000	1704.516602	138.638260
9066.756915	4933.590000	1703.497070	4.360075
9066.756915	4933.590000	1702.477539	48.217083
9066.756915	4933.590000	1701.457031	26.436443
9066.756915	4933.590000	1700.437500	42.131218
9066.756915	4933.590000	1699.416992	-0.748989
9066.756915	4933.590000	1698.395508	45.350803
9066.756915	4933.590000	1697.375000	18.843796
9066.756915	4933.590000	1696.354492	60.212753
9066.756915	4933.590000	1695.333008	-66.950233
9066.756915	4933.590000	1694.311523	11.823963
9066.756915	4933.590000	1693.290039	-105.953079
9066.756915	4933.590000	1692.267578	-41.266945
9066.756915	4933.590000	1691.246094	-11.694987
9066.756915	4933.590000	1690.223633	-31.249252
9066.756915	4933.590000	1689.201172	68.405182
9066.756915	4933.590000	1688.178711	139.961533
9066.756915	4933.590000	1687.155273	82.957138
9066.756915	4933.590000	1686.132813	25.963194
9066.756915	4933.590000	1685.109375	-56.718735
9066.756915	4933.590000	1684.085938	77.801514
9066.756915	4933.590000	1683.062500	114.192039
9066.756915	4933.590000	1682.039063	113.204430
9066.756915	4933.590000	1681.014648	58.519493
9066.756915	4933.590000	1679.990234	-17.159315
9066.756915	4933.590000	1678.965820	61.160076
9066.756915	4933.590000	1677.941406	39.133804
9066.756915	4933.590000	1676.916992	-78.516068
9066.756915	4933.590000	1675.891602	27.709084
9066.756915	4933.590000	1674.866211	42.960781
9066.756915	4933.590000	1673.840820	44.209381
9066.756915	4933.590000	1672.815430	85.060974
9066.756915	4933.590000	1671.790039	74.626060
9066.756915	4933.590000	1670.763672	101.452049
9066.756915	4933.590000	1669.737305	-13.815097
9066.756915	4933.590000	1668.710938	-156.992615
9066.756915	4933.590000	1667.684570	-13.767349
9066.756915	4933.590000	1666.658203	50.249989
9066.756915	4933.590000	1665.630859	70.010826
9066.756915	4933.590000	1664.603516	-47.526798
9066.756915	4933.590000	1663.576172	51.317692
9066.756915	4933.590000	1662.548828	140.809830
9066.756915	4933.590000	1661.520508	113.982071
9066.756915	4933.590000	1660.493164	112.730904
9066.756915	4933.590000	1659.464844	62.652321
9066.756915	4933.590000	1658.436523	-6.010664
9066.756915	4933.590000	1657.408203	67.084396
9066.756915	4933.590000	1656.378906	-34.100647
9066.756915	4933.590000	1655.350586	-58.603760
9066.756915	4933.590000	1654.321289	86.416565
9066.756915	4933.590000	1653.291992	31.693619
9066.756915	4933.590000	1652.261719	102.334259
9066.756915	4933.590000	1651.232422	89.387001
9066.756915	4933.590000	1650.202148	162.290482
9066.756915	4933.590000	1649.171875	79.714531
9066.756915	4933.590000	1648.141602	50.511890
9066.756915	4933.590000	1647.111328	127.992287
9066.756915	4933.590000	1646.080078	115.002289
9066.756915	4933.590000	1645.049805	183.150085
9066.756915	4933.590000	1644.018555	114.510925
9066.756915	4933.590000	1642.987305	222.008148
9066.756915	4933.590000	1641.955078	81.544922
9066.756915	4933.590000	1640.923828	87.067879
9066.756915	4933.590000	1639.891602	145.846069
9066.756915	4933.590000	1638.859375	100.394180
9066.756915	4933.590000	1637.827148	133.665985
9066.756915	4933.590000	1636.794922	206.267166
9066.756915	4933.590000	1635.761719	146.921173
9066.756915	4933.590000	1634.729492	150.065414
9066.756915	4933.590000	1633.696289	79.173500
9066.756915	4933.590000	1632.662109	177.138184
9066.756915	4933.590000	1631.628906	113.193291
9066.756915	4933.590000	1630.594727	130.182999
9066.756915	4933.590000	1629.561523	91.686882
9066.756915	4933.590000	1628.527344	208.038330
9066.756915	4933.590000	1627.493164	264.263336
9066.756915	4933.590000	1626.458008	140.265991
9066.756915	4933.590000	1625.423828	184.923737
9066.756915	4933.590000	1624.388672	204.154434
9066.756915	4933.590000	1623.353516	170.270187
9066.756915	4933.590000	1622.318359	249.505112
9066.756915	4933.590000	1621.282227	229.461517
9066.756915	4933.590000	1620.247070	308.645325
9066.756915	4933.590000	1619.210938	173.239471
9066.756915	4933.590000	1618.174805	206.261688
9066.756915	4933.590000	1617.137695	347.653168
9066.756915	4933.590000	1616.101563	223.836319
9066.756915	4933.590000	1615.064453	113.893517
9066.756915	4933.590000	1614.027344	121.534378
9066.756915	4933.590000	1612.990234	147.603836
9066.756915	4933.590000	1611.953125	348.755920
9066.756915	4933.590000	1610.916016	234.257385
9066.756915	4933.590000	1609.877930	287.916168
9066.756915	4933.590000	1608.839844	224.123535
9066.756915	4933.590000	1607.801758	178.770279
9066.756915	4933.590000	1606.763672	375.105652
9066.756915	4933.590000	1605.724609	398.771057
9066.756915	4933.590000	1604.685547	394.817383
9066.756915	4933.590000	1603.646484	374.762939
9066.756915	4933.590000	1602.607422	492.705597
9066.756915	4933.590000	1601.568359	385.261749
9066.756915	4933.590000	1600.528320	512.349182
9066.756915	4933.590000	1599.489258	393.451355
9066.756915	4933.590000	1598.449219	378.009064
9066.756915	4933.590000	1597.408203	406.224670
9066.756915	4933.590000	1596.368164	379.301819
9066.756915	4933.590000	1595.327148	366.167206
9066.756915	4933.590000	1594.287109	589.556213
9066.756915	4933.590000	1593.246094	417.977997
9066.756915	4933.590000	1592.204102	391.072937
9066.756915	4933.590000	1591.163086	389.427460
9066.756915	4933.590000	1590.121094	477.265167
9066.756915	4933.590000	1589.079102	496.250671
9066.756915	4933.590000	1588.037109	350.095184
9066.756915	4933.590000	1586.995117	380.568878
9066.756915	4933.590000	1585.953125	491.276520
9066.756915	4933.590000	1584.910156	471.285309
9066.756915	4933.590000	1583.867188	313.798950
9066.756915	4933.590000	1582.824219	433.627747
9066.756915	4933.590000	1581.781250	335.780182
9066.756915	4933.590000	1580.737305	318.137512
9066.756915	4933.590000	1579.693359	419.584076
9066.756915	4933.590000	1578.649414	363.018555
9066.756915	4933.590000	1577.605469	416.355164
9066.756915	4933.590000	1576.561523	387.285583
9066.756915	4933.590000	1575.516602	353.652954
9066.756915	4933.590000	1574.472656	441.291626
9066.756915	4933.590000	1573.427734	423.683624
9066.756915	4933.590000	1572.381836	346.627991
9066.756915	4933.590000	1571.336914	335.916077
9066.756915	4933.590000	1570.291016	444.080688
