#X		#Y		#Wave		#Intensity
9998.646277	4242.601667	1999.946289	-21.604551
9998.646277	4242.601667	1998.981445	-70.953751
9998.646277	4242.601667	1998.017578	64.748123
9998.646277	4242.601667	1997.052734	-40.082664
9998.646277	4242.601667	1996.088867	21.020370
9998.646277	4242.601667	1995.124023	22.547207
9998.646277	4242.601667	1994.159180	88.368187
9998.646277	4242.601667	1993.193359	92.161369
9998.646277	4242.601667	1992.228516	38.911236
9998.646277	4242.601667	1991.262695	7.867320
9998.646277	4242.601667	1990.296875	-85.129074
9998.646277	4242.601667	1989.331055	-14.867424
9998.646277	4242.601667	1988.365234	124.552452
9998.646277	4242.601667	1987.398438	63.481663
9998.646277	4242.601667	1986.432617	59.229572
9998.646277	4242.601667	1985.465820	59.844944
9998.646277	4242.601667	1984.499023	87.574692
9998.646277	4242.601667	1983.532227	90.500717
9998.646277	4242.601667	1982.565430	31.569622
9998.646277	4242.601667	1981.597656	120.834969
9998.646277	4242.601667	1980.629883	-14.802326
9998.646277	4242.601667	1979.662109	-64.013672
9998.646277	4242.601667	1978.694336	-44.131161
9998.646277	4242.601667	1977.726563	2.836811
9998.646277	4242.601667	1976.758789	12.696518
9998.646277	4242.601667	1975.790039	150.827835
9998.646277	4242.601667	1974.821289	167.937592
9998.646277	4242.601667	1973.852539	219.521393
9998.646277	4242.601667	1972.883789	26.831692
9998.646277	4242.601667	1971.915039	1.858933
9998.646277	4242.601667	1970.945313	3.964984
9998.646277	4242.601667	1969.975586	200.774048
9998.646277	4242.601667	1969.005859	111.541840
9998.646277	4242.601667	1968.036133	-14.671946
9998.646277	4242.601667	1967.066406	6.947437
9998.646277	4242.601667	1966.096680	109.806038
9998.646277	4242.601667	1965.125977	114.062866
9998.646277	4242.601667	1964.155273	219.238007
9998.646277	4242.601667	1963.184570	134.753784
9998.646277	4242.601667	1962.213867	-87.589828
9998.646277	4242.601667	1961.242188	-2.246392
9998.646277	4242.601667	1960.271484	11.667413
9998.646277	4242.601667	1959.299805	45.221287
9998.646277	4242.601667	1958.328125	78.727402
9998.646277	4242.601667	1957.356445	8.895514
9998.646277	4242.601667	1956.384766	-16.683542
9998.646277	4242.601667	1955.412109	169.137634
9998.646277	4242.601667	1954.439453	-102.319206
9998.646277	4242.601667	1953.467773	-2.622889
9998.646277	4242.601667	1952.495117	192.832047
9998.646277	4242.601667	1951.521484	54.092297
9998.646277	4242.601667	1950.548828	18.535696
9998.646277	4242.601667	1949.575195	-46.501328
9998.646277	4242.601667	1948.601563	-62.433830
9998.646277	4242.601667	1947.627930	169.546097
9998.646277	4242.601667	1946.654297	38.182384
9998.646277	4242.601667	1945.680664	81.068771
9998.646277	4242.601667	1944.706055	52.770844
9998.646277	4242.601667	1943.732422	152.016464
9998.646277	4242.601667	1942.757813	123.678223
9998.646277	4242.601667	1941.783203	-39.527103
9998.646277	4242.601667	1940.807617	57.175392
9998.646277	4242.601667	1939.833008	95.000443
9998.646277	4242.601667	1938.857422	127.894630
9998.646277	4242.601667	1937.881836	77.456329
9998.646277	4242.601667	1936.906250	142.160934
9998.646277	4242.601667	1935.930664	-30.750551
9998.646277	4242.601667	1934.955078	-76.271019
9998.646277	4242.601667	1933.978516	110.807549
9998.646277	4242.601667	1933.001953	11.401611
9998.646277	4242.601667	1932.025391	142.082657
9998.646277	4242.601667	1931.048828	13.325497
9998.646277	4242.601667	1930.072266	16.720625
9998.646277	4242.601667	1929.094727	208.453964
9998.646277	4242.601667	1928.118164	67.504944
9998.646277	4242.601667	1927.140625	85.536957
9998.646277	4242.601667	1926.163086	164.674164
9998.646277	4242.601667	1925.184570	40.902908
9998.646277	4242.601667	1924.207031	90.683327
9998.646277	4242.601667	1923.228516	45.149651
9998.646277	4242.601667	1922.250000	-22.356731
9998.646277	4242.601667	1921.271484	59.147114
9998.646277	4242.601667	1920.292969	8.751279
9998.646277	4242.601667	1919.314453	21.851503
9998.646277	4242.601667	1918.334961	12.974555
9998.646277	4242.601667	1917.355469	94.401947
9998.646277	4242.601667	1916.375977	-95.058510
9998.646277	4242.601667	1915.396484	101.023033
9998.646277	4242.601667	1914.416992	-20.069805
9998.646277	4242.601667	1913.436523	14.964321
9998.646277	4242.601667	1912.457031	54.863464
9998.646277	4242.601667	1911.476563	55.741875
9998.646277	4242.601667	1910.496094	98.057480
9998.646277	4242.601667	1909.515625	-49.724289
9998.646277	4242.601667	1908.534180	60.820412
9998.646277	4242.601667	1907.552734	-1.633730
9998.646277	4242.601667	1906.572266	47.976612
9998.646277	4242.601667	1905.590820	78.089371
9998.646277	4242.601667	1904.608398	-6.237062
9998.646277	4242.601667	1903.626953	-95.396393
9998.646277	4242.601667	1902.644531	-16.588406
9998.646277	4242.601667	1901.663086	-69.204880
9998.646277	4242.601667	1900.680664	-0.154836
9998.646277	4242.601667	1899.698242	-57.611610
9998.646277	4242.601667	1898.714844	35.738461
9998.646277	4242.601667	1897.732422	22.072840
9998.646277	4242.601667	1896.749023	86.210297
9998.646277	4242.601667	1895.765625	-0.368039
9998.646277	4242.601667	1894.782227	-21.294817
9998.646277	4242.601667	1893.798828	79.275810
9998.646277	4242.601667	1892.814453	17.055433
9998.646277	4242.601667	1891.831055	122.450386
9998.646277	4242.601667	1890.846680	-17.450050
9998.646277	4242.601667	1889.862305	-103.878700
9998.646277	4242.601667	1888.877930	-42.196548
9998.646277	4242.601667	1887.892578	-7.228643
9998.646277	4242.601667	1886.908203	-54.768227
9998.646277	4242.601667	1885.922852	52.982990
9998.646277	4242.601667	1884.937500	46.697624
9998.646277	4242.601667	1883.952148	-0.806894
9998.646277	4242.601667	1882.965820	72.946869
9998.646277	4242.601667	1881.980469	-6.046833
9998.646277	4242.601667	1880.994141	-9.867622
9998.646277	4242.601667	1880.007813	54.172909
9998.646277	4242.601667	1879.021484	-80.479668
9998.646277	4242.601667	1878.035156	-14.014305
9998.646277	4242.601667	1877.047852	8.836698
9998.646277	4242.601667	1876.061523	36.529865
9998.646277	4242.601667	1875.074219	30.323511
9998.646277	4242.601667	1874.086914	21.705273
9998.646277	4242.601667	1873.098633	20.356920
9998.646277	4242.601667	1872.111328	-31.797577
9998.646277	4242.601667	1871.123047	22.520386
9998.646277	4242.601667	1870.135742	-39.276985
9998.646277	4242.601667	1869.147461	-62.351986
9998.646277	4242.601667	1868.158203	-58.815746
9998.646277	4242.601667	1867.169922	0.326898
9998.646277	4242.601667	1866.180664	95.707611
9998.646277	4242.601667	1865.192383	77.482887
9998.646277	4242.601667	1864.203125	-76.029549
9998.646277	4242.601667	1863.213867	-50.722569
9998.646277	4242.601667	1862.223633	49.450340
9998.646277	4242.601667	1861.234375	40.929790
9998.646277	4242.601667	1860.244141	162.787430
9998.646277	4242.601667	1859.253906	-7.465110
9998.646277	4242.601667	1858.263672	85.406906
9998.646277	4242.601667	1857.273438	40.714405
9998.646277	4242.601667	1856.282227	-40.143303
9998.646277	4242.601667	1855.291992	47.874626
9998.646277	4242.601667	1854.300781	-13.651809
9998.646277	4242.601667	1853.309570	-12.461780
9998.646277	4242.601667	1852.317383	-40.195518
9998.646277	4242.601667	1851.326172	28.493422
9998.646277	4242.601667	1850.333984	-100.437004
9998.646277	4242.601667	1849.342773	-67.893051
9998.646277	4242.601667	1848.350586	51.360100
9998.646277	4242.601667	1847.357422	81.462433
9998.646277	4242.601667	1846.365234	46.543545
9998.646277	4242.601667	1845.372070	98.309952
9998.646277	4242.601667	1844.379883	36.931747
9998.646277	4242.601667	1843.386719	-19.607931
9998.646277	4242.601667	1842.393555	101.928703
9998.646277	4242.601667	1841.399414	-33.982109
9998.646277	4242.601667	1840.406250	80.301598
9998.646277	4242.601667	1839.412109	55.069389
9998.646277	4242.601667	1838.417969	22.636406
9998.646277	4242.601667	1837.423828	40.698761
9998.646277	4242.601667	1836.429688	29.915440
9998.646277	4242.601667	1835.434570	76.807846
9998.646277	4242.601667	1834.440430	159.722244
9998.646277	4242.601667	1833.445313	-16.812756
9998.646277	4242.601667	1832.450195	66.090462
9998.646277	4242.601667	1831.454102	60.121513
9998.646277	4242.601667	1830.458984	6.142525
9998.646277	4242.601667	1829.462891	-2.211469
9998.646277	4242.601667	1828.466797	-27.359974
9998.646277	4242.601667	1827.470703	86.661407
9998.646277	4242.601667	1826.474609	68.702316
9998.646277	4242.601667	1825.478516	98.718124
9998.646277	4242.601667	1824.481445	128.722412
9998.646277	4242.601667	1823.484375	93.981430
9998.646277	4242.601667	1822.487305	102.400276
9998.646277	4242.601667	1821.490234	113.211632
9998.646277	4242.601667	1820.493164	11.398201
9998.646277	4242.601667	1819.495117	98.882248
9998.646277	4242.601667	1818.498047	-31.635742
9998.646277	4242.601667	1817.500000	19.897713
9998.646277	4242.601667	1816.500977	-67.462433
9998.646277	4242.601667	1815.502930	55.870800
9998.646277	4242.601667	1814.504883	16.401447
9998.646277	4242.601667	1813.505859	63.091560
9998.646277	4242.601667	1812.506836	11.666895
9998.646277	4242.601667	1811.507813	-63.662075
9998.646277	4242.601667	1810.508789	109.763863
9998.646277	4242.601667	1809.508789	51.175785
9998.646277	4242.601667	1808.508789	81.062889
9998.646277	4242.601667	1807.508789	98.983543
9998.646277	4242.601667	1806.508789	21.300335
9998.646277	4242.601667	1805.508789	24.880238
9998.646277	4242.601667	1804.508789	71.455460
9998.646277	4242.601667	1803.507813	3.360818
9998.646277	4242.601667	1802.506836	-5.012373
9998.646277	4242.601667	1801.505859	10.488019
9998.646277	4242.601667	1800.504883	107.139130
9998.646277	4242.601667	1799.502930	-11.052615
9998.646277	4242.601667	1798.501953	9.195438
9998.646277	4242.601667	1797.500000	46.129509
9998.646277	4242.601667	1796.498047	-69.616135
9998.646277	4242.601667	1795.496094	-15.999952
9998.646277	4242.601667	1794.493164	-24.405674
9998.646277	4242.601667	1793.491211	167.437210
9998.646277	4242.601667	1792.488281	142.301224
9998.646277	4242.601667	1791.485352	55.208122
9998.646277	4242.601667	1790.482422	65.827148
9998.646277	4242.601667	1789.478516	62.140987
9998.646277	4242.601667	1788.475586	58.448788
9998.646277	4242.601667	1787.471680	45.223949
9998.646277	4242.601667	1786.467773	-34.666275
9998.646277	4242.601667	1785.463867	-83.590248
9998.646277	4242.601667	1784.459961	5.528996
9998.646277	4242.601667	1783.455078	101.743935
9998.646277	4242.601667	1782.450195	93.236801
9998.646277	4242.601667	1781.445313	3.854082
9998.646277	4242.601667	1780.440430	133.279190
9998.646277	4242.601667	1779.435547	34.392330
9998.646277	4242.601667	1778.429688	-52.581223
9998.646277	4242.601667	1777.424805	10.202809
9998.646277	4242.601667	1776.418945	18.297731
9998.646277	4242.601667	1775.413086	16.875353
9998.646277	4242.601667	1774.406250	-100.951118
9998.646277	4242.601667	1773.400391	-92.871765
9998.646277	4242.601667	1772.393555	-42.066486
9998.646277	4242.601667	1771.386719	77.555260
9998.646277	4242.601667	1770.379883	168.636871
9998.646277	4242.601667	1769.373047	31.852497
9998.646277	4242.601667	1768.365234	-71.674942
9998.646277	4242.601667	1767.358398	-70.796257
9998.646277	4242.601667	1766.350586	155.387848
9998.646277	4242.601667	1765.342773	149.084000
9998.646277	4242.601667	1764.334961	-4.223855
9998.646277	4242.601667	1763.326172	188.595245
9998.646277	4242.601667	1762.318359	96.932281
9998.646277	4242.601667	1761.309570	-20.773975
9998.646277	4242.601667	1760.300781	-12.888141
9998.646277	4242.601667	1759.291016	56.565403
9998.646277	4242.601667	1758.282227	45.462135
9998.646277	4242.601667	1757.272461	91.173836
9998.646277	4242.601667	1756.262695	37.429703
9998.646277	4242.601667	1755.252930	4.993270
9998.646277	4242.601667	1754.243164	159.498688
9998.646277	4242.601667	1753.233398	110.462448
9998.646277	4242.601667	1752.222656	9.389381
9998.646277	4242.601667	1751.211914	-37.263458
9998.646277	4242.601667	1750.201172	48.502106
9998.646277	4242.601667	1749.190430	-35.995438
9998.646277	4242.601667	1748.179688	127.709381
9998.646277	4242.601667	1747.167969	-34.787338
9998.646277	4242.601667	1746.156250	81.569427
9998.646277	4242.601667	1745.144531	13.606244
9998.646277	4242.601667	1744.132813	-16.556387
9998.646277	4242.601667	1743.121094	151.635635
9998.646277	4242.601667	1742.108398	29.349661
9998.646277	4242.601667	1741.095703	-76.381920
9998.646277	4242.601667	1740.083008	129.439590
9998.646277	4242.601667	1739.070313	33.136612
9998.646277	4242.601667	1738.057617	-18.320963
9998.646277	4242.601667	1737.043945	78.823013
9998.646277	4242.601667	1736.030273	-104.718796
9998.646277	4242.601667	1735.016602	-14.700613
9998.646277	4242.601667	1734.002930	-16.670115
9998.646277	4242.601667	1732.989258	-77.577324
9998.646277	4242.601667	1731.974609	-133.765747
9998.646277	4242.601667	1730.959961	-65.080276
9998.646277	4242.601667	1729.945313	189.651169
9998.646277	4242.601667	1728.930664	-87.984795
9998.646277	4242.601667	1727.916016	20.632618
9998.646277	4242.601667	1726.900391	51.501629
9998.646277	4242.601667	1725.885742	58.806316
9998.646277	4242.601667	1724.870117	56.676929
9998.646277	4242.601667	1723.853516	110.999130
9998.646277	4242.601667	1722.837891	42.960030
9998.646277	4242.601667	1721.822266	85.471878
9998.646277	4242.601667	1720.805664	33.889267
9998.646277	4242.601667	1719.789063	-71.764793
9998.646277	4242.601667	1718.772461	88.223297
9998.646277	4242.601667	1717.754883	-33.886890
9998.646277	4242.601667	1716.738281	53.157631
9998.646277	4242.601667	1715.720703	64.974655
9998.646277	4242.601667	1714.703125	53.282368
9998.646277	4242.601667	1713.685547	53.318539
9998.646277	4242.601667	1712.667969	15.771642
9998.646277	4242.601667	1711.649414	-47.601509
9998.646277	4242.601667	1710.630859	60.364113
9998.646277	4242.601667	1709.612305	154.191940
9998.646277	4242.601667	1708.593750	170.545074
9998.646277	4242.601667	1707.575195	-38.307930
9998.646277	4242.601667	1706.555664	132.823761
9998.646277	4242.601667	1705.536133	71.741501
9998.646277	4242.601667	1704.516602	113.815414
9998.646277	4242.601667	1703.497070	99.603638
9998.646277	4242.601667	1702.477539	174.429428
9998.646277	4242.601667	1701.457031	82.858063
9998.646277	4242.601667	1700.437500	21.759052
9998.646277	4242.601667	1699.416992	-34.651138
9998.646277	4242.601667	1698.395508	-46.567837
9998.646277	4242.601667	1697.375000	-35.083843
9998.646277	4242.601667	1696.354492	-30.643169
9998.646277	4242.601667	1695.333008	29.943419
9998.646277	4242.601667	1694.311523	120.907646
9998.646277	4242.601667	1693.290039	29.349651
9998.646277	4242.601667	1692.267578	-22.430519
9998.646277	4242.601667	1691.246094	-106.943932
9998.646277	4242.601667	1690.223633	-16.092041
9998.646277	4242.601667	1689.201172	77.044960
9998.646277	4242.601667	1688.178711	29.903160
9998.646277	4242.601667	1687.155273	41.177567
9998.646277	4242.601667	1686.132813	-34.006500
9998.646277	4242.601667	1685.109375	68.337563
9998.646277	4242.601667	1684.085938	-51.228752
9998.646277	4242.601667	1683.062500	149.111038
9998.646277	4242.601667	1682.039063	76.230537
9998.646277	4242.601667	1681.014648	150.400360
9998.646277	4242.601667	1679.990234	5.174272
9998.646277	4242.601667	1678.965820	83.962982
9998.646277	4242.601667	1677.941406	57.737785
9998.646277	4242.601667	1676.916992	26.842030
9998.646277	4242.601667	1675.891602	110.194710
9998.646277	4242.601667	1674.866211	95.585976
9998.646277	4242.601667	1673.840820	20.366529
9998.646277	4242.601667	1672.815430	24.392424
9998.646277	4242.601667	1671.790039	128.588577
9998.646277	4242.601667	1670.763672	113.923706
9998.646277	4242.601667	1669.737305	8.417570
9998.646277	4242.601667	1668.710938	-20.220255
9998.646277	4242.601667	1667.684570	207.231537
9998.646277	4242.601667	1666.658203	80.774048
9998.646277	4242.601667	1665.630859	80.018539
9998.646277	4242.601667	1664.603516	104.843216
9998.646277	4242.601667	1663.576172	-19.241045
9998.646277	4242.601667	1662.548828	126.509537
9998.646277	4242.601667	1661.520508	86.153442
9998.646277	4242.601667	1660.493164	36.500835
9998.646277	4242.601667	1659.464844	65.884872
9998.646277	4242.601667	1658.436523	169.614517
9998.646277	4242.601667	1657.408203	263.995544
9998.646277	4242.601667	1656.378906	272.366241
9998.646277	4242.601667	1655.350586	22.898668
9998.646277	4242.601667	1654.321289	191.523529
9998.646277	4242.601667	1653.291992	183.609940
9998.646277	4242.601667	1652.261719	208.183563
9998.646277	4242.601667	1651.232422	167.751114
9998.646277	4242.601667	1650.202148	194.612793
9998.646277	4242.601667	1649.171875	-80.153717
9998.646277	4242.601667	1648.141602	236.669022
9998.646277	4242.601667	1647.111328	379.420990
9998.646277	4242.601667	1646.080078	155.749451
9998.646277	4242.601667	1645.049805	189.480042
9998.646277	4242.601667	1644.018555	232.454407
9998.646277	4242.601667	1642.987305	187.341080
9998.646277	4242.601667	1641.955078	186.252579
9998.646277	4242.601667	1640.923828	180.522018
9998.646277	4242.601667	1639.891602	260.471863
9998.646277	4242.601667	1638.859375	226.918228
9998.646277	4242.601667	1637.827148	211.886627
9998.646277	4242.601667	1636.794922	210.738602
9998.646277	4242.601667	1635.761719	177.178406
9998.646277	4242.601667	1634.729492	238.487503
9998.646277	4242.601667	1633.696289	133.202179
9998.646277	4242.601667	1632.662109	282.359192
9998.646277	4242.601667	1631.628906	202.522797
9998.646277	4242.601667	1630.594727	168.944046
9998.646277	4242.601667	1629.561523	213.962616
9998.646277	4242.601667	1628.527344	228.908142
9998.646277	4242.601667	1627.493164	299.293121
9998.646277	4242.601667	1626.458008	307.265076
9998.646277	4242.601667	1625.423828	361.421570
9998.646277	4242.601667	1624.388672	156.908646
9998.646277	4242.601667	1623.353516	331.112274
9998.646277	4242.601667	1622.318359	357.504852
9998.646277	4242.601667	1621.282227	178.471252
9998.646277	4242.601667	1620.247070	297.166168
9998.646277	4242.601667	1619.210938	291.225342
9998.646277	4242.601667	1618.174805	308.344849
9998.646277	4242.601667	1617.137695	226.285080
9998.646277	4242.601667	1616.101563	388.653900
9998.646277	4242.601667	1615.064453	373.447815
9998.646277	4242.601667	1614.027344	448.127655
9998.646277	4242.601667	1612.990234	421.381104
9998.646277	4242.601667	1611.953125	277.141510
9998.646277	4242.601667	1610.916016	460.038940
9998.646277	4242.601667	1609.877930	619.826416
9998.646277	4242.601667	1608.839844	618.369507
9998.646277	4242.601667	1607.801758	444.250977
9998.646277	4242.601667	1606.763672	458.930023
9998.646277	4242.601667	1605.724609	478.197693
9998.646277	4242.601667	1604.685547	439.934265
9998.646277	4242.601667	1603.646484	410.883148
9998.646277	4242.601667	1602.607422	372.639282
9998.646277	4242.601667	1601.568359	355.101318
9998.646277	4242.601667	1600.528320	431.820099
9998.646277	4242.601667	1599.489258	407.374329
9998.646277	4242.601667	1598.449219	527.708679
9998.646277	4242.601667	1597.408203	558.384399
9998.646277	4242.601667	1596.368164	621.207825
9998.646277	4242.601667	1595.327148	447.441437
9998.646277	4242.601667	1594.287109	501.071716
9998.646277	4242.601667	1593.246094	393.970062
9998.646277	4242.601667	1592.204102	470.534149
9998.646277	4242.601667	1591.163086	547.068848
9998.646277	4242.601667	1590.121094	320.701447
9998.646277	4242.601667	1589.079102	534.870850
9998.646277	4242.601667	1588.037109	407.214905
9998.646277	4242.601667	1586.995117	453.884308
9998.646277	4242.601667	1585.953125	344.634186
9998.646277	4242.601667	1584.910156	379.833191
9998.646277	4242.601667	1583.867188	543.357239
9998.646277	4242.601667	1582.824219	411.236908
9998.646277	4242.601667	1581.781250	384.549011
9998.646277	4242.601667	1580.737305	305.190094
9998.646277	4242.601667	1579.693359	289.981934
9998.646277	4242.601667	1578.649414	485.417358
9998.646277	4242.601667	1577.605469	451.869720
9998.646277	4242.601667	1576.561523	390.872925
9998.646277	4242.601667	1575.516602	368.798584
9998.646277	4242.601667	1574.472656	367.327026
9998.646277	4242.601667	1573.427734	496.230560
9998.646277	4242.601667	1572.381836	318.648102
9998.646277	4242.601667	1571.336914	271.464050
9998.646277	4242.601667	1570.291016	436.891663
