#X		#Y		#Wave		#Intensity
9351.149468	5041.316667	1999.946289	13.479382
9351.149468	5041.316667	1998.981445	-44.926052
9351.149468	5041.316667	1998.017578	-34.509533
9351.149468	5041.316667	1997.052734	-4.133018
9351.149468	5041.316667	1996.088867	-42.999809
9351.149468	5041.316667	1995.124023	32.229805
9351.149468	5041.316667	1994.159180	10.970064
9351.149468	5041.316667	1993.193359	34.415604
9351.149468	5041.316667	1992.228516	-8.867902
9351.149468	5041.316667	1991.262695	2.439849
9351.149468	5041.316667	1990.296875	28.709639
9351.149468	5041.316667	1989.331055	-21.624531
9351.149468	5041.316667	1988.365234	44.446857
9351.149468	5041.316667	1987.398438	-5.657303
9351.149468	5041.316667	1986.432617	-21.014185
9351.149468	5041.316667	1985.465820	15.657525
9351.149468	5041.316667	1984.499023	-51.416946
9351.149468	5041.316667	1983.532227	67.003929
9351.149468	5041.316667	1982.565430	91.565315
9351.149468	5041.316667	1981.597656	-17.216990
9351.149468	5041.316667	1980.629883	2.582533
9351.149468	5041.316667	1979.662109	19.987637
9351.149468	5041.316667	1978.694336	-21.798656
9351.149468	5041.316667	1977.726563	104.394989
9351.149468	5041.316667	1976.758789	-16.230976
9351.149468	5041.316667	1975.790039	18.743889
9351.149468	5041.316667	1974.821289	26.631901
9351.149468	5041.316667	1973.852539	123.400276
9351.149468	5041.316667	1972.883789	47.532406
9351.149468	5041.316667	1971.915039	90.131844
9351.149468	5041.316667	1970.945313	-42.291759
9351.149468	5041.316667	1969.975586	7.821643
9351.149468	5041.316667	1969.005859	-33.226002
9351.149468	5041.316667	1968.036133	66.263313
9351.149468	5041.316667	1967.066406	136.200272
9351.149468	5041.316667	1966.096680	-30.329567
9351.149468	5041.316667	1965.125977	-12.027118
9351.149468	5041.316667	1964.155273	6.313856
9351.149468	5041.316667	1963.184570	27.153311
9351.149468	5041.316667	1962.213867	25.872635
9351.149468	5041.316667	1961.242188	-54.125458
9351.149468	5041.316667	1960.271484	60.339554
9351.149468	5041.316667	1959.299805	-9.720085
9351.149468	5041.316667	1958.328125	-5.926019
9351.149468	5041.316667	1957.356445	64.301605
9351.149468	5041.316667	1956.384766	60.768257
9351.149468	5041.316667	1955.412109	-14.028406
9351.149468	5041.316667	1954.439453	66.081741
9351.149468	5041.316667	1953.467773	-33.207809
9351.149468	5041.316667	1952.495117	113.267525
9351.149468	5041.316667	1951.521484	112.317406
9351.149468	5041.316667	1950.548828	-35.977230
9351.149468	5041.316667	1949.575195	-46.678841
9351.149468	5041.316667	1948.601563	-40.170204
9351.149468	5041.316667	1947.627930	-23.827143
9351.149468	5041.316667	1946.654297	-61.467339
9351.149468	5041.316667	1945.680664	35.883312
9351.149468	5041.316667	1944.706055	-11.537405
9351.149468	5041.316667	1943.732422	-31.944706
9351.149468	5041.316667	1942.757813	-13.092705
9351.149468	5041.316667	1941.783203	-18.756647
9351.149468	5041.316667	1940.807617	-4.795748
9351.149468	5041.316667	1939.833008	70.446152
9351.149468	5041.316667	1938.857422	23.136284
9351.149468	5041.316667	1937.881836	-105.004913
9351.149468	5041.316667	1936.906250	-76.309692
9351.149468	5041.316667	1935.930664	-59.866383
9351.149468	5041.316667	1934.955078	81.464737
9351.149468	5041.316667	1933.978516	78.293449
9351.149468	5041.316667	1933.001953	62.886681
9351.149468	5041.316667	1932.025391	-13.699014
9351.149468	5041.316667	1931.048828	22.306328
9351.149468	5041.316667	1930.072266	146.373856
9351.149468	5041.316667	1929.094727	47.801979
9351.149468	5041.316667	1928.118164	-26.278564
9351.149468	5041.316667	1927.140625	-41.649349
9351.149468	5041.316667	1926.163086	-118.134590
9351.149468	5041.316667	1925.184570	-89.491722
9351.149468	5041.316667	1924.207031	51.551239
9351.149468	5041.316667	1923.228516	-76.230339
9351.149468	5041.316667	1922.250000	6.118972
9351.149468	5041.316667	1921.271484	10.274148
9351.149468	5041.316667	1920.292969	-61.279751
9351.149468	5041.316667	1919.314453	23.443573
9351.149468	5041.316667	1918.334961	-21.248255
9351.149468	5041.316667	1917.355469	4.846898
9351.149468	5041.316667	1916.375977	116.329155
9351.149468	5041.316667	1915.396484	-8.889319
9351.149468	5041.316667	1914.416992	112.293587
9351.149468	5041.316667	1913.436523	133.431656
9351.149468	5041.316667	1912.457031	-72.213020
9351.149468	5041.316667	1911.476563	-16.938473
9351.149468	5041.316667	1910.496094	116.302589
9351.149468	5041.316667	1909.515625	120.324028
9351.149468	5041.316667	1908.534180	92.657684
9351.149468	5041.316667	1907.552734	77.170494
9351.149468	5041.316667	1906.572266	-74.716095
9351.149468	5041.316667	1905.590820	77.835091
9351.149468	5041.316667	1904.608398	98.843048
9351.149468	5041.316667	1903.626953	61.409588
9351.149468	5041.316667	1902.644531	-0.360815
9351.149468	5041.316667	1901.663086	13.311705
9351.149468	5041.316667	1900.680664	73.190300
9351.149468	5041.316667	1899.698242	69.790550
9351.149468	5041.316667	1898.714844	119.881126
9351.149468	5041.316667	1897.732422	58.090179
9351.149468	5041.316667	1896.749023	54.652977
9351.149468	5041.316667	1895.765625	-29.006586
9351.149468	5041.316667	1894.782227	-8.153295
9351.149468	5041.316667	1893.798828	24.826506
9351.149468	5041.316667	1892.814453	33.486614
9351.149468	5041.316667	1891.831055	-16.161272
9351.149468	5041.316667	1890.846680	-7.526036
9351.149468	5041.316667	1889.862305	112.772903
9351.149468	5041.316667	1888.877930	33.963993
9351.149468	5041.316667	1887.892578	18.270449
9351.149468	5041.316667	1886.908203	43.818413
9351.149468	5041.316667	1885.922852	52.359062
9351.149468	5041.316667	1884.937500	123.946922
9351.149468	5041.316667	1883.952148	122.738220
9351.149468	5041.316667	1882.965820	60.897057
9351.149468	5041.316667	1881.980469	18.457966
9351.149468	5041.316667	1880.994141	-21.556740
9351.149468	5041.316667	1880.007813	52.324814
9351.149468	5041.316667	1879.021484	75.282570
9351.149468	5041.316667	1878.035156	83.682030
9351.149468	5041.316667	1877.047852	101.750725
9351.149468	5041.316667	1876.061523	22.937469
9351.149468	5041.316667	1875.074219	9.506385
9351.149468	5041.316667	1874.086914	73.524445
9351.149468	5041.316667	1873.098633	-119.033058
9351.149468	5041.316667	1872.111328	27.224977
9351.149468	5041.316667	1871.123047	40.353836
9351.149468	5041.316667	1870.135742	-81.988968
9351.149468	5041.316667	1869.147461	-1.160788
9351.149468	5041.316667	1868.158203	-38.854710
9351.149468	5041.316667	1867.169922	128.932831
9351.149468	5041.316667	1866.180664	9.021898
9351.149468	5041.316667	1865.192383	87.296738
9351.149468	5041.316667	1864.203125	-63.999554
9351.149468	5041.316667	1863.213867	-12.341533
9351.149468	5041.316667	1862.223633	106.906639
9351.149468	5041.316667	1861.234375	122.263367
9351.149468	5041.316667	1860.244141	43.444077
9351.149468	5041.316667	1859.253906	126.364647
9351.149468	5041.316667	1858.263672	16.172171
9351.149468	5041.316667	1857.273438	79.735901
9351.149468	5041.316667	1856.282227	32.289024
9351.149468	5041.316667	1855.291992	122.330353
9351.149468	5041.316667	1854.300781	-130.115005
9351.149468	5041.316667	1853.309570	-32.871578
9351.149468	5041.316667	1852.317383	20.929790
9351.149468	5041.316667	1851.326172	9.624198
9351.149468	5041.316667	1850.333984	32.044506
9351.149468	5041.316667	1849.342773	27.942610
9351.149468	5041.316667	1848.350586	-33.982944
9351.149468	5041.316667	1847.357422	55.827999
9351.149468	5041.316667	1846.365234	32.421856
9351.149468	5041.316667	1845.372070	25.863298
9351.149468	5041.316667	1844.379883	74.657295
9351.149468	5041.316667	1843.386719	60.848938
9351.149468	5041.316667	1842.393555	-109.362915
9351.149468	5041.316667	1841.399414	117.409065
9351.149468	5041.316667	1840.406250	125.211426
9351.149468	5041.316667	1839.412109	-28.119305
9351.149468	5041.316667	1838.417969	-80.423782
9351.149468	5041.316667	1837.423828	-149.546600
9351.149468	5041.316667	1836.429688	88.979202
9351.149468	5041.316667	1835.434570	55.870953
9351.149468	5041.316667	1834.440430	97.242729
9351.149468	5041.316667	1833.445313	20.886980
9351.149468	5041.316667	1832.450195	110.258522
9351.149468	5041.316667	1831.454102	50.715290
9351.149468	5041.316667	1830.458984	22.393398
9351.149468	5041.316667	1829.462891	114.082291
9351.149468	5041.316667	1828.466797	49.741219
9351.149468	5041.316667	1827.470703	167.762405
9351.149468	5041.316667	1826.474609	96.219246
9351.149468	5041.316667	1825.478516	17.497614
9351.149468	5041.316667	1824.481445	-25.235050
9351.149468	5041.316667	1823.484375	-58.371510
9351.149468	5041.316667	1822.487305	37.936523
9351.149468	5041.316667	1821.490234	-23.976837
9351.149468	5041.316667	1820.493164	-30.764772
9351.149468	5041.316667	1819.495117	-18.394655
9351.149468	5041.316667	1818.498047	106.540337
9351.149468	5041.316667	1817.500000	-8.061687
9351.149468	5041.316667	1816.500977	-14.884693
9351.149468	5041.316667	1815.502930	18.983551
9351.149468	5041.316667	1814.504883	-141.037384
9351.149468	5041.316667	1813.505859	134.515976
9351.149468	5041.316667	1812.506836	-27.876738
9351.149468	5041.316667	1811.507813	115.970879
9351.149468	5041.316667	1810.508789	46.900749
9351.149468	5041.316667	1809.508789	-36.498936
9351.149468	5041.316667	1808.508789	-17.073954
9351.149468	5041.316667	1807.508789	105.118195
9351.149468	5041.316667	1806.508789	19.342262
9351.149468	5041.316667	1805.508789	-66.408951
9351.149468	5041.316667	1804.508789	-37.466389
9351.149468	5041.316667	1803.507813	22.507122
9351.149468	5041.316667	1802.506836	-20.234077
9351.149468	5041.316667	1801.505859	61.187561
9351.149468	5041.316667	1800.504883	30.377119
9351.149468	5041.316667	1799.502930	-0.429816
9351.149468	5041.316667	1798.501953	18.880360
9351.149468	5041.316667	1797.500000	-14.311144
9351.149468	5041.316667	1796.498047	-4.560997
9351.149468	5041.316667	1795.496094	-25.824186
9351.149468	5041.316667	1794.493164	5.369701
9351.149468	5041.316667	1793.491211	65.154823
9351.149468	5041.316667	1792.488281	93.924530
9351.149468	5041.316667	1791.485352	-8.390526
9351.149468	5041.316667	1790.482422	-43.960182
9351.149468	5041.316667	1789.478516	-22.351664
9351.149468	5041.316667	1788.475586	-7.900986
9351.149468	5041.316667	1787.471680	-41.087902
9351.149468	5041.316667	1786.467773	30.487490
9351.149468	5041.316667	1785.463867	11.577215
9351.149468	5041.316667	1784.459961	6.947461
9351.149468	5041.316667	1783.455078	-107.140915
9351.149468	5041.316667	1782.450195	-73.694733
9351.149468	5041.316667	1781.445313	71.525322
9351.149468	5041.316667	1780.440430	107.293251
9351.149468	5041.316667	1779.435547	-32.903107
9351.149468	5041.316667	1778.429688	67.043274
9351.149468	5041.316667	1777.424805	-56.465260
9351.149468	5041.316667	1776.418945	-125.278214
9351.149468	5041.316667	1775.413086	86.277771
9351.149468	5041.316667	1774.406250	-18.178581
9351.149468	5041.316667	1773.400391	55.521198
9351.149468	5041.316667	1772.393555	112.565170
9351.149468	5041.316667	1771.386719	50.881584
9351.149468	5041.316667	1770.379883	12.952418
9351.149468	5041.316667	1769.373047	8.256718
9351.149468	5041.316667	1768.365234	43.892166
9351.149468	5041.316667	1767.358398	-27.239330
9351.149468	5041.316667	1766.350586	10.751889
9351.149468	5041.316667	1765.342773	124.606102
9351.149468	5041.316667	1764.334961	105.644135
9351.149468	5041.316667	1763.326172	89.053482
9351.149468	5041.316667	1762.318359	55.876720
9351.149468	5041.316667	1761.309570	46.401398
9351.149468	5041.316667	1760.300781	-17.562860
9351.149468	5041.316667	1759.291016	-102.826622
9351.149468	5041.316667	1758.282227	-31.761866
9351.149468	5041.316667	1757.272461	27.431150
9351.149468	5041.316667	1756.262695	-3.358359
9351.149468	5041.316667	1755.252930	-19.939953
9351.149468	5041.316667	1754.243164	105.462746
9351.149468	5041.316667	1753.233398	10.782855
9351.149468	5041.316667	1752.222656	-88.597847
9351.149468	5041.316667	1751.211914	10.716203
9351.149468	5041.316667	1750.201172	39.051189
9351.149468	5041.316667	1749.190430	131.202042
9351.149468	5041.316667	1748.179688	-15.416217
9351.149468	5041.316667	1747.167969	-140.716263
9351.149468	5041.316667	1746.156250	-8.431401
9351.149468	5041.316667	1745.144531	17.494492
9351.149468	5041.316667	1744.132813	43.406147
9351.149468	5041.316667	1743.121094	-13.345861
9351.149468	5041.316667	1742.108398	227.399002
9351.149468	5041.316667	1741.095703	40.795132
9351.149468	5041.316667	1740.083008	-37.178989
9351.149468	5041.316667	1739.070313	101.955643
9351.149468	5041.316667	1738.057617	132.511993
9351.149468	5041.316667	1737.043945	-23.287893
9351.149468	5041.316667	1736.030273	52.076576
9351.149468	5041.316667	1735.016602	-44.711998
9351.149468	5041.316667	1734.002930	205.063171
9351.149468	5041.316667	1732.989258	171.909851
9351.149468	5041.316667	1731.974609	98.702904
9351.149468	5041.316667	1730.959961	110.335503
9351.149468	5041.316667	1729.945313	58.359371
9351.149468	5041.316667	1728.930664	-38.349049
9351.149468	5041.316667	1727.916016	39.219494
9351.149468	5041.316667	1726.900391	-43.334110
9351.149468	5041.316667	1725.885742	-8.171691
9351.149468	5041.316667	1724.870117	71.683945
9351.149468	5041.316667	1723.853516	5.625341
9351.149468	5041.316667	1722.837891	120.724075
9351.149468	5041.316667	1721.822266	87.600555
9351.149468	5041.316667	1720.805664	122.676949
9351.149468	5041.316667	1719.789063	-18.594481
9351.149468	5041.316667	1718.772461	110.503044
9351.149468	5041.316667	1717.754883	11.579160
9351.149468	5041.316667	1716.738281	88.917404
9351.149468	5041.316667	1715.720703	-14.673074
9351.149468	5041.316667	1714.703125	-7.835673
9351.149468	5041.316667	1713.685547	53.006714
9351.149468	5041.316667	1712.667969	3.468310
9351.149468	5041.316667	1711.649414	12.628449
9351.149468	5041.316667	1710.630859	33.514641
9351.149468	5041.316667	1709.612305	75.506729
9351.149468	5041.316667	1708.593750	-67.865547
9351.149468	5041.316667	1707.575195	-61.066086
9351.149468	5041.316667	1706.555664	-16.752886
9351.149468	5041.316667	1705.536133	-117.837868
9351.149468	5041.316667	1704.516602	-202.478790
9351.149468	5041.316667	1703.497070	141.832108
9351.149468	5041.316667	1702.477539	-13.140069
9351.149468	5041.316667	1701.457031	54.520397
9351.149468	5041.316667	1700.437500	61.246098
9351.149468	5041.316667	1699.416992	72.645355
9351.149468	5041.316667	1698.395508	11.442732
9351.149468	5041.316667	1697.375000	6.446817
9351.149468	5041.316667	1696.354492	97.416580
9351.149468	5041.316667	1695.333008	8.143206
9351.149468	5041.316667	1694.311523	38.228477
9351.149468	5041.316667	1693.290039	28.526854
9351.149468	5041.316667	1692.267578	35.193260
9351.149468	5041.316667	1691.246094	-9.593527
9351.149468	5041.316667	1690.223633	71.881180
9351.149468	5041.316667	1689.201172	45.790974
9351.149468	5041.316667	1688.178711	73.457588
9351.149468	5041.316667	1687.155273	-32.084663
9351.149468	5041.316667	1686.132813	65.659927
9351.149468	5041.316667	1685.109375	-25.838137
9351.149468	5041.316667	1684.085938	-35.571739
9351.149468	5041.316667	1683.062500	6.058692
9351.149468	5041.316667	1682.039063	59.338272
9351.149468	5041.316667	1681.014648	114.923340
9351.149468	5041.316667	1679.990234	60.804447
9351.149468	5041.316667	1678.965820	34.696880
9351.149468	5041.316667	1677.941406	38.916035
9351.149468	5041.316667	1676.916992	-10.512737
9351.149468	5041.316667	1675.891602	38.000477
9351.149468	5041.316667	1674.866211	114.463821
9351.149468	5041.316667	1673.840820	32.394363
9351.149468	5041.316667	1672.815430	115.806221
9351.149468	5041.316667	1671.790039	71.033348
9351.149468	5041.316667	1670.763672	133.423935
9351.149468	5041.316667	1669.737305	-46.434746
9351.149468	5041.316667	1668.710938	-0.359608
9351.149468	5041.316667	1667.684570	-5.528419
9351.149468	5041.316667	1666.658203	26.540237
9351.149468	5041.316667	1665.630859	128.404480
9351.149468	5041.316667	1664.603516	151.111115
9351.149468	5041.316667	1663.576172	-28.588436
9351.149468	5041.316667	1662.548828	75.530907
9351.149468	5041.316667	1661.520508	167.974030
9351.149468	5041.316667	1660.493164	139.476685
9351.149468	5041.316667	1659.464844	155.146805
9351.149468	5041.316667	1658.436523	191.720200
9351.149468	5041.316667	1657.408203	270.097229
9351.149468	5041.316667	1656.378906	162.580109
9351.149468	5041.316667	1655.350586	136.394424
9351.149468	5041.316667	1654.321289	131.109482
9351.149468	5041.316667	1653.291992	88.670082
9351.149468	5041.316667	1652.261719	215.698746
9351.149468	5041.316667	1651.232422	261.439667
9351.149468	5041.316667	1650.202148	330.357605
9351.149468	5041.316667	1649.171875	53.556080
9351.149468	5041.316667	1648.141602	187.420853
9351.149468	5041.316667	1647.111328	86.993408
9351.149468	5041.316667	1646.080078	116.441643
9351.149468	5041.316667	1645.049805	148.190491
9351.149468	5041.316667	1644.018555	221.638229
9351.149468	5041.316667	1642.987305	260.289337
9351.149468	5041.316667	1641.955078	234.042664
9351.149468	5041.316667	1640.923828	293.508728
9351.149468	5041.316667	1639.891602	160.714157
9351.149468	5041.316667	1638.859375	102.060966
9351.149468	5041.316667	1637.827148	328.180481
9351.149468	5041.316667	1636.794922	149.140091
9351.149468	5041.316667	1635.761719	289.519287
9351.149468	5041.316667	1634.729492	348.856873
9351.149468	5041.316667	1633.696289	380.402130
9351.149468	5041.316667	1632.662109	270.841095
9351.149468	5041.316667	1631.628906	302.373779
9351.149468	5041.316667	1630.594727	467.977936
9351.149468	5041.316667	1629.561523	582.658752
9351.149468	5041.316667	1628.527344	611.776306
9351.149468	5041.316667	1627.493164	532.276062
9351.149468	5041.316667	1626.458008	448.176453
9351.149468	5041.316667	1625.423828	421.846985
9351.149468	5041.316667	1624.388672	427.847870
9351.149468	5041.316667	1623.353516	450.000122
9351.149468	5041.316667	1622.318359	375.185120
9351.149468	5041.316667	1621.282227	365.011566
9351.149468	5041.316667	1620.247070	391.755310
9351.149468	5041.316667	1619.210938	344.655212
9351.149468	5041.316667	1618.174805	352.922974
9351.149468	5041.316667	1617.137695	372.708740
9351.149468	5041.316667	1616.101563	390.176178
9351.149468	5041.316667	1615.064453	398.406372
9351.149468	5041.316667	1614.027344	441.197906
9351.149468	5041.316667	1612.990234	449.400482
9351.149468	5041.316667	1611.953125	545.139648
9351.149468	5041.316667	1610.916016	479.595093
9351.149468	5041.316667	1609.877930	427.883820
9351.149468	5041.316667	1608.839844	512.035461
9351.149468	5041.316667	1607.801758	561.616455
9351.149468	5041.316667	1606.763672	677.917847
9351.149468	5041.316667	1605.724609	593.961914
9351.149468	5041.316667	1604.685547	696.391602
9351.149468	5041.316667	1603.646484	548.043396
9351.149468	5041.316667	1602.607422	572.234192
9351.149468	5041.316667	1601.568359	794.156555
9351.149468	5041.316667	1600.528320	549.297913
9351.149468	5041.316667	1599.489258	679.185425
9351.149468	5041.316667	1598.449219	590.699341
9351.149468	5041.316667	1597.408203	350.597015
9351.149468	5041.316667	1596.368164	576.906128
9351.149468	5041.316667	1595.327148	529.811157
9351.149468	5041.316667	1594.287109	400.065704
9351.149468	5041.316667	1593.246094	410.406555
9351.149468	5041.316667	1592.204102	354.169647
9351.149468	5041.316667	1591.163086	396.632721
9351.149468	5041.316667	1590.121094	429.892731
9351.149468	5041.316667	1589.079102	511.308594
9351.149468	5041.316667	1588.037109	434.431122
9351.149468	5041.316667	1586.995117	385.095428
9351.149468	5041.316667	1585.953125	434.358704
9351.149468	5041.316667	1584.910156	517.978027
9351.149468	5041.316667	1583.867188	425.093475
9351.149468	5041.316667	1582.824219	543.041138
9351.149468	5041.316667	1581.781250	546.394348
9351.149468	5041.316667	1580.737305	696.326172
9351.149468	5041.316667	1579.693359	553.077759
9351.149468	5041.316667	1578.649414	746.441345
9351.149468	5041.316667	1577.605469	603.229980
9351.149468	5041.316667	1576.561523	656.892456
9351.149468	5041.316667	1575.516602	495.438324
9351.149468	5041.316667	1574.472656	629.162964
9351.149468	5041.316667	1573.427734	735.380981
9351.149468	5041.316667	1572.381836	560.270874
9351.149468	5041.316667	1571.336914	508.692383
9351.149468	5041.316667	1570.291016	585.140930
