#X		#Y		#Wave		#Intensity
10102.280851	4193.635000	1999.946289	-45.704025
10102.280851	4193.635000	1998.981445	37.909031
10102.280851	4193.635000	1998.017578	1.290338
10102.280851	4193.635000	1997.052734	1.812269
10102.280851	4193.635000	1996.088867	41.935104
10102.280851	4193.635000	1995.124023	-24.516916
10102.280851	4193.635000	1994.159180	0.656844
10102.280851	4193.635000	1993.193359	92.643517
10102.280851	4193.635000	1992.228516	162.280914
10102.280851	4193.635000	1991.262695	-40.429455
10102.280851	4193.635000	1990.296875	-55.002846
10102.280851	4193.635000	1989.331055	-86.920319
10102.280851	4193.635000	1988.365234	-14.945210
10102.280851	4193.635000	1987.398438	116.341560
10102.280851	4193.635000	1986.432617	-44.263138
10102.280851	4193.635000	1985.465820	173.476929
10102.280851	4193.635000	1984.499023	17.822277
10102.280851	4193.635000	1983.532227	87.130447
10102.280851	4193.635000	1982.565430	171.223755
10102.280851	4193.635000	1981.597656	52.665939
10102.280851	4193.635000	1980.629883	166.347321
10102.280851	4193.635000	1979.662109	0.880617
10102.280851	4193.635000	1978.694336	171.301865
10102.280851	4193.635000	1977.726563	42.908253
10102.280851	4193.635000	1976.758789	-92.851173
10102.280851	4193.635000	1975.790039	-63.212307
10102.280851	4193.635000	1974.821289	156.411789
10102.280851	4193.635000	1973.852539	77.429977
10102.280851	4193.635000	1972.883789	-6.460317
10102.280851	4193.635000	1971.915039	109.439240
10102.280851	4193.635000	1970.945313	232.689438
10102.280851	4193.635000	1969.975586	-58.272346
10102.280851	4193.635000	1969.005859	74.821930
10102.280851	4193.635000	1968.036133	27.969799
10102.280851	4193.635000	1967.066406	-4.079296
10102.280851	4193.635000	1966.096680	47.642799
10102.280851	4193.635000	1965.125977	-85.375092
10102.280851	4193.635000	1964.155273	94.400864
10102.280851	4193.635000	1963.184570	-11.483646
10102.280851	4193.635000	1962.213867	10.680140
10102.280851	4193.635000	1961.242188	42.686119
10102.280851	4193.635000	1960.271484	84.531616
10102.280851	4193.635000	1959.299805	-11.404830
10102.280851	4193.635000	1958.328125	69.806877
10102.280851	4193.635000	1957.356445	-104.771149
10102.280851	4193.635000	1956.384766	131.355316
10102.280851	4193.635000	1955.412109	69.936584
10102.280851	4193.635000	1954.439453	-8.654504
10102.280851	4193.635000	1953.467773	-6.106257
10102.280851	4193.635000	1952.495117	-23.204731
10102.280851	4193.635000	1951.521484	-57.481194
10102.280851	4193.635000	1950.548828	11.425446
10102.280851	4193.635000	1949.575195	4.193489
10102.280851	4193.635000	1948.601563	95.185265
10102.280851	4193.635000	1947.627930	31.508539
10102.280851	4193.635000	1946.654297	-73.853477
10102.280851	4193.635000	1945.680664	-14.754986
10102.280851	4193.635000	1944.706055	12.441427
10102.280851	4193.635000	1943.732422	-36.396679
10102.280851	4193.635000	1942.757813	-26.343403
10102.280851	4193.635000	1941.783203	-87.386765
10102.280851	4193.635000	1940.807617	33.022240
10102.280851	4193.635000	1939.833008	-15.722667
10102.280851	4193.635000	1938.857422	50.745869
10102.280851	4193.635000	1937.881836	-56.757099
10102.280851	4193.635000	1936.906250	191.006317
10102.280851	4193.635000	1935.930664	201.114807
10102.280851	4193.635000	1934.955078	120.629478
10102.280851	4193.635000	1933.978516	72.018265
10102.280851	4193.635000	1933.001953	47.920746
10102.280851	4193.635000	1932.025391	-52.021950
10102.280851	4193.635000	1931.048828	129.492416
10102.280851	4193.635000	1930.072266	7.585878
10102.280851	4193.635000	1929.094727	154.808914
10102.280851	4193.635000	1928.118164	140.582916
10102.280851	4193.635000	1927.140625	121.487854
10102.280851	4193.635000	1926.163086	-105.384285
10102.280851	4193.635000	1925.184570	-51.067505
10102.280851	4193.635000	1924.207031	-143.381805
10102.280851	4193.635000	1923.228516	-15.745679
10102.280851	4193.635000	1922.250000	55.671986
10102.280851	4193.635000	1921.271484	-100.066956
10102.280851	4193.635000	1920.292969	-43.280548
10102.280851	4193.635000	1919.314453	-3.590550
10102.280851	4193.635000	1918.334961	82.479309
10102.280851	4193.635000	1917.355469	85.551010
10102.280851	4193.635000	1916.375977	-138.297531
10102.280851	4193.635000	1915.396484	-71.724266
10102.280851	4193.635000	1914.416992	36.305725
10102.280851	4193.635000	1913.436523	49.195972
10102.280851	4193.635000	1912.457031	76.726059
10102.280851	4193.635000	1911.476563	128.637375
10102.280851	4193.635000	1910.496094	-51.012218
10102.280851	4193.635000	1909.515625	81.349724
10102.280851	4193.635000	1908.534180	21.190243
10102.280851	4193.635000	1907.552734	-58.423126
10102.280851	4193.635000	1906.572266	69.032173
10102.280851	4193.635000	1905.590820	-8.101275
10102.280851	4193.635000	1904.608398	-206.929245
10102.280851	4193.635000	1903.626953	-62.444439
10102.280851	4193.635000	1902.644531	11.417439
10102.280851	4193.635000	1901.663086	92.562553
10102.280851	4193.635000	1900.680664	73.939018
10102.280851	4193.635000	1899.698242	215.871552
10102.280851	4193.635000	1898.714844	92.676331
10102.280851	4193.635000	1897.732422	76.522598
10102.280851	4193.635000	1896.749023	-95.204475
10102.280851	4193.635000	1895.765625	70.994576
10102.280851	4193.635000	1894.782227	-18.026659
10102.280851	4193.635000	1893.798828	-17.107935
10102.280851	4193.635000	1892.814453	-89.060493
10102.280851	4193.635000	1891.831055	77.041603
10102.280851	4193.635000	1890.846680	87.674423
10102.280851	4193.635000	1889.862305	8.477477
10102.280851	4193.635000	1888.877930	-53.692242
10102.280851	4193.635000	1887.892578	-64.868134
10102.280851	4193.635000	1886.908203	115.658852
10102.280851	4193.635000	1885.922852	65.647064
10102.280851	4193.635000	1884.937500	20.508909
10102.280851	4193.635000	1883.952148	4.492468
10102.280851	4193.635000	1882.965820	-57.585064
10102.280851	4193.635000	1881.980469	-32.363808
10102.280851	4193.635000	1880.994141	82.528854
10102.280851	4193.635000	1880.007813	117.410576
10102.280851	4193.635000	1879.021484	-0.361688
10102.280851	4193.635000	1878.035156	-149.580383
10102.280851	4193.635000	1877.047852	98.458885
10102.280851	4193.635000	1876.061523	145.419189
10102.280851	4193.635000	1875.074219	-90.903023
10102.280851	4193.635000	1874.086914	6.905581
10102.280851	4193.635000	1873.098633	0.608472
10102.280851	4193.635000	1872.111328	-51.663013
10102.280851	4193.635000	1871.123047	-19.243788
10102.280851	4193.635000	1870.135742	-88.429260
10102.280851	4193.635000	1869.147461	-43.930820
10102.280851	4193.635000	1868.158203	-6.707441
10102.280851	4193.635000	1867.169922	54.671562
10102.280851	4193.635000	1866.180664	2.424464
10102.280851	4193.635000	1865.192383	39.602573
10102.280851	4193.635000	1864.203125	74.344559
10102.280851	4193.635000	1863.213867	208.107239
10102.280851	4193.635000	1862.223633	-30.122812
10102.280851	4193.635000	1861.234375	96.350281
10102.280851	4193.635000	1860.244141	-23.486710
10102.280851	4193.635000	1859.253906	-53.976250
10102.280851	4193.635000	1858.263672	19.310398
10102.280851	4193.635000	1857.273438	53.954323
10102.280851	4193.635000	1856.282227	16.201324
10102.280851	4193.635000	1855.291992	-38.431313
10102.280851	4193.635000	1854.300781	-107.523811
10102.280851	4193.635000	1853.309570	37.984745
10102.280851	4193.635000	1852.317383	12.271761
10102.280851	4193.635000	1851.326172	95.014771
10102.280851	4193.635000	1850.333984	28.310722
10102.280851	4193.635000	1849.342773	161.588669
10102.280851	4193.635000	1848.350586	244.217484
10102.280851	4193.635000	1847.357422	-60.946865
10102.280851	4193.635000	1846.365234	69.822624
10102.280851	4193.635000	1845.372070	70.524628
10102.280851	4193.635000	1844.379883	119.351540
10102.280851	4193.635000	1843.386719	184.989975
10102.280851	4193.635000	1842.393555	144.718796
10102.280851	4193.635000	1841.399414	-95.223190
10102.280851	4193.635000	1840.406250	-154.701584
10102.280851	4193.635000	1839.412109	35.918400
10102.280851	4193.635000	1838.417969	-38.023788
10102.280851	4193.635000	1837.423828	214.966095
10102.280851	4193.635000	1836.429688	47.248978
10102.280851	4193.635000	1835.434570	54.989861
10102.280851	4193.635000	1834.440430	38.683731
10102.280851	4193.635000	1833.445313	-78.521652
10102.280851	4193.635000	1832.450195	-17.986387
10102.280851	4193.635000	1831.454102	49.707874
10102.280851	4193.635000	1830.458984	-43.488625
10102.280851	4193.635000	1829.462891	62.546345
10102.280851	4193.635000	1828.466797	14.934217
10102.280851	4193.635000	1827.470703	29.700029
10102.280851	4193.635000	1826.474609	56.432297
10102.280851	4193.635000	1825.478516	-34.390808
10102.280851	4193.635000	1824.481445	-31.683083
10102.280851	4193.635000	1823.484375	107.657997
10102.280851	4193.635000	1822.487305	-86.268280
10102.280851	4193.635000	1821.490234	76.948387
10102.280851	4193.635000	1820.493164	139.440018
10102.280851	4193.635000	1819.495117	233.026596
10102.280851	4193.635000	1818.498047	120.562286
10102.280851	4193.635000	1817.500000	-11.044544
10102.280851	4193.635000	1816.500977	123.143227
10102.280851	4193.635000	1815.502930	56.168388
10102.280851	4193.635000	1814.504883	29.880701
10102.280851	4193.635000	1813.505859	-29.926802
10102.280851	4193.635000	1812.506836	101.664154
10102.280851	4193.635000	1811.507813	87.260704
10102.280851	4193.635000	1810.508789	106.317673
10102.280851	4193.635000	1809.508789	120.555740
10102.280851	4193.635000	1808.508789	51.084702
10102.280851	4193.635000	1807.508789	12.685072
10102.280851	4193.635000	1806.508789	36.406410
10102.280851	4193.635000	1805.508789	-45.042538
10102.280851	4193.635000	1804.508789	21.623154
10102.280851	4193.635000	1803.507813	30.909187
10102.280851	4193.635000	1802.506836	102.250275
10102.280851	4193.635000	1801.505859	27.892775
10102.280851	4193.635000	1800.504883	10.823788
10102.280851	4193.635000	1799.502930	19.982523
10102.280851	4193.635000	1798.501953	91.150078
10102.280851	4193.635000	1797.500000	85.913567
10102.280851	4193.635000	1796.498047	40.098026
10102.280851	4193.635000	1795.496094	-79.662437
10102.280851	4193.635000	1794.493164	89.102509
10102.280851	4193.635000	1793.491211	140.959457
10102.280851	4193.635000	1792.488281	87.889275
10102.280851	4193.635000	1791.485352	-41.450764
10102.280851	4193.635000	1790.482422	-27.818144
10102.280851	4193.635000	1789.478516	50.092808
10102.280851	4193.635000	1788.475586	63.638069
10102.280851	4193.635000	1787.471680	-60.969334
10102.280851	4193.635000	1786.467773	240.600403
10102.280851	4193.635000	1785.463867	13.585934
10102.280851	4193.635000	1784.459961	103.150230
10102.280851	4193.635000	1783.455078	145.056320
10102.280851	4193.635000	1782.450195	65.584373
10102.280851	4193.635000	1781.445313	64.600983
10102.280851	4193.635000	1780.440430	-60.076565
10102.280851	4193.635000	1779.435547	-13.550396
10102.280851	4193.635000	1778.429688	35.298851
10102.280851	4193.635000	1777.424805	0.911888
10102.280851	4193.635000	1776.418945	-28.745459
10102.280851	4193.635000	1775.413086	126.888962
10102.280851	4193.635000	1774.406250	244.421707
10102.280851	4193.635000	1773.400391	133.884094
10102.280851	4193.635000	1772.393555	99.335480
10102.280851	4193.635000	1771.386719	24.406525
10102.280851	4193.635000	1770.379883	44.415066
10102.280851	4193.635000	1769.373047	-68.513916
10102.280851	4193.635000	1768.365234	77.184959
10102.280851	4193.635000	1767.358398	-52.382324
10102.280851	4193.635000	1766.350586	133.508743
10102.280851	4193.635000	1765.342773	56.077431
10102.280851	4193.635000	1764.334961	196.760757
10102.280851	4193.635000	1763.326172	48.162071
10102.280851	4193.635000	1762.318359	-12.723153
10102.280851	4193.635000	1761.309570	-61.775177
10102.280851	4193.635000	1760.300781	-30.295050
10102.280851	4193.635000	1759.291016	10.610016
10102.280851	4193.635000	1758.282227	15.945060
10102.280851	4193.635000	1757.272461	-99.512703
10102.280851	4193.635000	1756.262695	-4.274614
10102.280851	4193.635000	1755.252930	-32.181927
10102.280851	4193.635000	1754.243164	114.997849
10102.280851	4193.635000	1753.233398	23.129539
10102.280851	4193.635000	1752.222656	37.704861
10102.280851	4193.635000	1751.211914	-122.770737
10102.280851	4193.635000	1750.201172	-112.971001
10102.280851	4193.635000	1749.190430	19.724295
10102.280851	4193.635000	1748.179688	22.333307
10102.280851	4193.635000	1747.167969	86.347633
10102.280851	4193.635000	1746.156250	-3.275916
10102.280851	4193.635000	1745.144531	-109.435181
10102.280851	4193.635000	1744.132813	20.597990
10102.280851	4193.635000	1743.121094	79.705559
10102.280851	4193.635000	1742.108398	-12.348047
10102.280851	4193.635000	1741.095703	-47.747456
10102.280851	4193.635000	1740.083008	-52.486656
10102.280851	4193.635000	1739.070313	51.285088
10102.280851	4193.635000	1738.057617	-83.290962
10102.280851	4193.635000	1737.043945	55.758476
10102.280851	4193.635000	1736.030273	-114.210510
10102.280851	4193.635000	1735.016602	-20.072748
10102.280851	4193.635000	1734.002930	-34.441833
10102.280851	4193.635000	1732.989258	-81.834671
10102.280851	4193.635000	1731.974609	68.696983
10102.280851	4193.635000	1730.959961	-42.377323
10102.280851	4193.635000	1729.945313	-101.619400
10102.280851	4193.635000	1728.930664	86.415771
10102.280851	4193.635000	1727.916016	-5.856565
10102.280851	4193.635000	1726.900391	54.895027
10102.280851	4193.635000	1725.885742	-91.535172
10102.280851	4193.635000	1724.870117	-75.565575
10102.280851	4193.635000	1723.853516	13.301512
10102.280851	4193.635000	1722.837891	-133.133102
10102.280851	4193.635000	1721.822266	-105.496986
10102.280851	4193.635000	1720.805664	-30.875366
10102.280851	4193.635000	1719.789063	22.528337
10102.280851	4193.635000	1718.772461	-81.608871
10102.280851	4193.635000	1717.754883	70.427536
10102.280851	4193.635000	1716.738281	-19.639400
10102.280851	4193.635000	1715.720703	-58.021515
10102.280851	4193.635000	1714.703125	152.555939
10102.280851	4193.635000	1713.685547	13.118640
10102.280851	4193.635000	1712.667969	122.585297
10102.280851	4193.635000	1711.649414	13.663977
10102.280851	4193.635000	1710.630859	50.270660
10102.280851	4193.635000	1709.612305	-2.332648
10102.280851	4193.635000	1708.593750	-17.405914
10102.280851	4193.635000	1707.575195	-65.339470
10102.280851	4193.635000	1706.555664	-82.797920
10102.280851	4193.635000	1705.536133	148.268661
10102.280851	4193.635000	1704.516602	-66.198524
10102.280851	4193.635000	1703.497070	-27.472591
10102.280851	4193.635000	1702.477539	-7.534187
10102.280851	4193.635000	1701.457031	-15.748697
10102.280851	4193.635000	1700.437500	20.527187
10102.280851	4193.635000	1699.416992	131.705933
10102.280851	4193.635000	1698.395508	-120.136520
10102.280851	4193.635000	1697.375000	65.895226
10102.280851	4193.635000	1696.354492	36.486061
10102.280851	4193.635000	1695.333008	-23.362314
10102.280851	4193.635000	1694.311523	40.798737
10102.280851	4193.635000	1693.290039	90.875809
10102.280851	4193.635000	1692.267578	105.823181
10102.280851	4193.635000	1691.246094	1.486236
10102.280851	4193.635000	1690.223633	-2.302988
10102.280851	4193.635000	1689.201172	-29.487825
10102.280851	4193.635000	1688.178711	62.509228
10102.280851	4193.635000	1687.155273	-182.033401
10102.280851	4193.635000	1686.132813	-17.660759
10102.280851	4193.635000	1685.109375	13.485392
10102.280851	4193.635000	1684.085938	72.623444
10102.280851	4193.635000	1683.062500	66.343613
10102.280851	4193.635000	1682.039063	-110.365448
10102.280851	4193.635000	1681.014648	-23.291803
10102.280851	4193.635000	1679.990234	10.059389
10102.280851	4193.635000	1678.965820	78.375511
10102.280851	4193.635000	1677.941406	74.337135
10102.280851	4193.635000	1676.916992	25.971483
10102.280851	4193.635000	1675.891602	70.871796
10102.280851	4193.635000	1674.866211	-47.450897
10102.280851	4193.635000	1673.840820	69.669327
10102.280851	4193.635000	1672.815430	9.620055
10102.280851	4193.635000	1671.790039	-8.482096
10102.280851	4193.635000	1670.763672	33.968746
10102.280851	4193.635000	1669.737305	-121.578323
10102.280851	4193.635000	1668.710938	-32.578960
10102.280851	4193.635000	1667.684570	-76.331100
10102.280851	4193.635000	1666.658203	-13.006707
10102.280851	4193.635000	1665.630859	-45.140572
10102.280851	4193.635000	1664.603516	106.540688
10102.280851	4193.635000	1663.576172	104.613647
10102.280851	4193.635000	1662.548828	39.877060
10102.280851	4193.635000	1661.520508	7.704792
10102.280851	4193.635000	1660.493164	-70.960701
10102.280851	4193.635000	1659.464844	99.113739
10102.280851	4193.635000	1658.436523	1.843165
10102.280851	4193.635000	1657.408203	176.464798
10102.280851	4193.635000	1656.378906	165.150345
10102.280851	4193.635000	1655.350586	46.990761
10102.280851	4193.635000	1654.321289	-17.724207
10102.280851	4193.635000	1653.291992	29.025991
10102.280851	4193.635000	1652.261719	87.351997
10102.280851	4193.635000	1651.232422	43.532333
10102.280851	4193.635000	1650.202148	-53.653561
10102.280851	4193.635000	1649.171875	37.115196
10102.280851	4193.635000	1648.141602	273.976227
10102.280851	4193.635000	1647.111328	304.337189
10102.280851	4193.635000	1646.080078	70.345329
10102.280851	4193.635000	1645.049805	195.771393
10102.280851	4193.635000	1644.018555	191.343536
10102.280851	4193.635000	1642.987305	145.201492
10102.280851	4193.635000	1641.955078	163.941727
10102.280851	4193.635000	1640.923828	196.575241
10102.280851	4193.635000	1639.891602	175.920975
10102.280851	4193.635000	1638.859375	273.365295
10102.280851	4193.635000	1637.827148	271.220612
10102.280851	4193.635000	1636.794922	-8.682558
10102.280851	4193.635000	1635.761719	292.381653
10102.280851	4193.635000	1634.729492	257.839264
10102.280851	4193.635000	1633.696289	107.640625
10102.280851	4193.635000	1632.662109	163.339371
10102.280851	4193.635000	1631.628906	355.454285
10102.280851	4193.635000	1630.594727	288.551453
10102.280851	4193.635000	1629.561523	263.288788
10102.280851	4193.635000	1628.527344	305.053650
10102.280851	4193.635000	1627.493164	168.888153
10102.280851	4193.635000	1626.458008	284.580627
10102.280851	4193.635000	1625.423828	250.105453
10102.280851	4193.635000	1624.388672	259.518921
10102.280851	4193.635000	1623.353516	292.020813
10102.280851	4193.635000	1622.318359	236.797089
10102.280851	4193.635000	1621.282227	84.662079
10102.280851	4193.635000	1620.247070	345.633942
10102.280851	4193.635000	1619.210938	509.610413
10102.280851	4193.635000	1618.174805	475.164764
10102.280851	4193.635000	1617.137695	394.611328
10102.280851	4193.635000	1616.101563	438.608337
10102.280851	4193.635000	1615.064453	341.972046
10102.280851	4193.635000	1614.027344	365.230286
10102.280851	4193.635000	1612.990234	547.485962
10102.280851	4193.635000	1611.953125	506.203918
10102.280851	4193.635000	1610.916016	416.575470
10102.280851	4193.635000	1609.877930	375.349060
10102.280851	4193.635000	1608.839844	334.149200
10102.280851	4193.635000	1607.801758	612.965454
10102.280851	4193.635000	1606.763672	481.993195
10102.280851	4193.635000	1605.724609	443.126373
10102.280851	4193.635000	1604.685547	438.797485
10102.280851	4193.635000	1603.646484	496.590942
10102.280851	4193.635000	1602.607422	496.878235
10102.280851	4193.635000	1601.568359	504.076782
10102.280851	4193.635000	1600.528320	550.363342
10102.280851	4193.635000	1599.489258	654.113159
10102.280851	4193.635000	1598.449219	592.372742
10102.280851	4193.635000	1597.408203	613.379822
10102.280851	4193.635000	1596.368164	744.662354
10102.280851	4193.635000	1595.327148	402.783569
10102.280851	4193.635000	1594.287109	329.720978
10102.280851	4193.635000	1593.246094	463.321167
10102.280851	4193.635000	1592.204102	388.003967
10102.280851	4193.635000	1591.163086	372.405518
10102.280851	4193.635000	1590.121094	558.738647
10102.280851	4193.635000	1589.079102	589.024475
10102.280851	4193.635000	1588.037109	568.858582
10102.280851	4193.635000	1586.995117	342.339539
10102.280851	4193.635000	1585.953125	489.632233
10102.280851	4193.635000	1584.910156	462.674011
10102.280851	4193.635000	1583.867188	509.083496
10102.280851	4193.635000	1582.824219	287.410370
10102.280851	4193.635000	1581.781250	400.312256
10102.280851	4193.635000	1580.737305	352.856934
