#X		#Y		#Wave		#Intensity
9233.054255	5063.351667	1999.946289	100.022972
9233.054255	5063.351667	1998.981445	62.750526
9233.054255	5063.351667	1998.017578	177.190552
9233.054255	5063.351667	1997.052734	36.246494
9233.054255	5063.351667	1996.088867	-65.101448
9233.054255	5063.351667	1995.124023	63.876785
9233.054255	5063.351667	1994.159180	-27.711443
9233.054255	5063.351667	1993.193359	49.036167
9233.054255	5063.351667	1992.228516	21.685297
9233.054255	5063.351667	1991.262695	-127.027153
9233.054255	5063.351667	1990.296875	75.672340
9233.054255	5063.351667	1989.331055	-60.775936
9233.054255	5063.351667	1988.365234	-135.396591
9233.054255	5063.351667	1987.398438	-111.118202
9233.054255	5063.351667	1986.432617	-57.240726
9233.054255	5063.351667	1985.465820	-25.699390
9233.054255	5063.351667	1984.499023	-110.423691
9233.054255	5063.351667	1983.532227	66.821266
9233.054255	5063.351667	1982.565430	53.658970
9233.054255	5063.351667	1981.597656	-28.734385
9233.054255	5063.351667	1980.629883	249.515457
9233.054255	5063.351667	1979.662109	129.964478
9233.054255	5063.351667	1978.694336	-9.346082
9233.054255	5063.351667	1977.726563	-27.673819
9233.054255	5063.351667	1976.758789	3.331023
9233.054255	5063.351667	1975.790039	-34.822948
9233.054255	5063.351667	1974.821289	60.245373
9233.054255	5063.351667	1973.852539	226.785019
9233.054255	5063.351667	1972.883789	45.429745
9233.054255	5063.351667	1971.915039	229.102295
9233.054255	5063.351667	1970.945313	114.321632
9233.054255	5063.351667	1969.975586	14.342844
9233.054255	5063.351667	1969.005859	-85.627266
9233.054255	5063.351667	1968.036133	280.173737
9233.054255	5063.351667	1967.066406	19.982861
9233.054255	5063.351667	1966.096680	-50.451244
9233.054255	5063.351667	1965.125977	86.008110
9233.054255	5063.351667	1964.155273	0.768292
9233.054255	5063.351667	1963.184570	235.608124
9233.054255	5063.351667	1962.213867	290.644257
9233.054255	5063.351667	1961.242188	-85.058136
9233.054255	5063.351667	1960.271484	85.635506
9233.054255	5063.351667	1959.299805	-161.987793
9233.054255	5063.351667	1958.328125	-35.646774
9233.054255	5063.351667	1957.356445	181.629547
9233.054255	5063.351667	1956.384766	66.867760
9233.054255	5063.351667	1955.412109	62.766510
9233.054255	5063.351667	1954.439453	100.443886
9233.054255	5063.351667	1953.467773	152.843155
9233.054255	5063.351667	1952.495117	25.853506
9233.054255	5063.351667	1951.521484	61.040379
9233.054255	5063.351667	1950.548828	108.488373
9233.054255	5063.351667	1949.575195	-35.625389
9233.054255	5063.351667	1948.601563	-22.556036
9233.054255	5063.351667	1947.627930	64.149475
9233.054255	5063.351667	1946.654297	126.278145
9233.054255	5063.351667	1945.680664	154.030014
9233.054255	5063.351667	1944.706055	-137.166214
9233.054255	5063.351667	1943.732422	27.989700
9233.054255	5063.351667	1942.757813	-135.544128
9233.054255	5063.351667	1941.783203	125.183998
9233.054255	5063.351667	1940.807617	52.406403
9233.054255	5063.351667	1939.833008	104.666321
9233.054255	5063.351667	1938.857422	-134.713943
9233.054255	5063.351667	1937.881836	37.630268
9233.054255	5063.351667	1936.906250	53.134098
9233.054255	5063.351667	1935.930664	232.739487
9233.054255	5063.351667	1934.955078	91.489914
9233.054255	5063.351667	1933.978516	11.510140
9233.054255	5063.351667	1933.001953	14.796491
9233.054255	5063.351667	1932.025391	125.777138
9233.054255	5063.351667	1931.048828	-52.019184
9233.054255	5063.351667	1930.072266	107.881546
9233.054255	5063.351667	1929.094727	245.718262
9233.054255	5063.351667	1928.118164	173.188980
9233.054255	5063.351667	1927.140625	171.607101
9233.054255	5063.351667	1926.163086	86.915993
9233.054255	5063.351667	1925.184570	-56.394478
9233.054255	5063.351667	1924.207031	-40.793465
9233.054255	5063.351667	1923.228516	175.167206
9233.054255	5063.351667	1922.250000	44.169048
9233.054255	5063.351667	1921.271484	96.413429
9233.054255	5063.351667	1920.292969	-14.961799
9233.054255	5063.351667	1919.314453	5.558172
9233.054255	5063.351667	1918.334961	167.665283
9233.054255	5063.351667	1917.355469	124.711807
9233.054255	5063.351667	1916.375977	72.027901
9233.054255	5063.351667	1915.396484	24.254261
9233.054255	5063.351667	1914.416992	-6.413735
9233.054255	5063.351667	1913.436523	189.749039
9233.054255	5063.351667	1912.457031	188.347107
9233.054255	5063.351667	1911.476563	30.934206
9233.054255	5063.351667	1910.496094	185.582092
9233.054255	5063.351667	1909.515625	103.799530
9233.054255	5063.351667	1908.534180	53.734478
9233.054255	5063.351667	1907.552734	-179.002319
9233.054255	5063.351667	1906.572266	-163.209335
9233.054255	5063.351667	1905.590820	-220.464661
9233.054255	5063.351667	1904.608398	60.737495
9233.054255	5063.351667	1903.626953	69.211288
9233.054255	5063.351667	1902.644531	-63.465084
9233.054255	5063.351667	1901.663086	27.785145
9233.054255	5063.351667	1900.680664	-31.824053
9233.054255	5063.351667	1899.698242	86.167473
9233.054255	5063.351667	1898.714844	14.433059
9233.054255	5063.351667	1897.732422	125.100090
9233.054255	5063.351667	1896.749023	-4.937719
9233.054255	5063.351667	1895.765625	37.656635
9233.054255	5063.351667	1894.782227	41.363388
9233.054255	5063.351667	1893.798828	149.556320
9233.054255	5063.351667	1892.814453	-43.506264
9233.054255	5063.351667	1891.831055	-3.325119
9233.054255	5063.351667	1890.846680	2.855841
9233.054255	5063.351667	1889.862305	-90.499557
9233.054255	5063.351667	1888.877930	41.938480
9233.054255	5063.351667	1887.892578	-85.348137
9233.054255	5063.351667	1886.908203	10.659256
9233.054255	5063.351667	1885.922852	-17.088890
9233.054255	5063.351667	1884.937500	-22.989187
9233.054255	5063.351667	1883.952148	104.503929
9233.054255	5063.351667	1882.965820	-51.732117
9233.054255	5063.351667	1881.980469	32.095627
9233.054255	5063.351667	1880.994141	6.829247
9233.054255	5063.351667	1880.007813	-25.691608
9233.054255	5063.351667	1879.021484	-21.852083
9233.054255	5063.351667	1878.035156	112.802528
9233.054255	5063.351667	1877.047852	53.654514
9233.054255	5063.351667	1876.061523	9.062149
9233.054255	5063.351667	1875.074219	-25.824827
9233.054255	5063.351667	1874.086914	-21.964699
9233.054255	5063.351667	1873.098633	-102.808182
9233.054255	5063.351667	1872.111328	14.796881
9233.054255	5063.351667	1871.123047	71.880119
9233.054255	5063.351667	1870.135742	-161.312576
9233.054255	5063.351667	1869.147461	-41.337513
9233.054255	5063.351667	1868.158203	-114.836716
9233.054255	5063.351667	1867.169922	130.793091
9233.054255	5063.351667	1866.180664	323.158691
9233.054255	5063.351667	1865.192383	227.883865
9233.054255	5063.351667	1864.203125	81.907417
9233.054255	5063.351667	1863.213867	-112.326668
9233.054255	5063.351667	1862.223633	-84.293556
9233.054255	5063.351667	1861.234375	122.414711
9233.054255	5063.351667	1860.244141	-62.066807
9233.054255	5063.351667	1859.253906	-111.307793
9233.054255	5063.351667	1858.263672	-44.692509
9233.054255	5063.351667	1857.273438	229.402618
9233.054255	5063.351667	1856.282227	45.026779
9233.054255	5063.351667	1855.291992	-170.641525
9233.054255	5063.351667	1854.300781	125.013199
9233.054255	5063.351667	1853.309570	70.944687
9233.054255	5063.351667	1852.317383	173.581055
9233.054255	5063.351667	1851.326172	170.124237
9233.054255	5063.351667	1850.333984	-33.345478
9233.054255	5063.351667	1849.342773	110.188354
9233.054255	5063.351667	1848.350586	157.307938
9233.054255	5063.351667	1847.357422	28.591879
9233.054255	5063.351667	1846.365234	-25.441395
9233.054255	5063.351667	1845.372070	84.245354
9233.054255	5063.351667	1844.379883	-1.088188
9233.054255	5063.351667	1843.386719	171.102005
9233.054255	5063.351667	1842.393555	-77.851318
9233.054255	5063.351667	1841.399414	-13.986968
9233.054255	5063.351667	1840.406250	-39.151627
9233.054255	5063.351667	1839.412109	-69.128487
9233.054255	5063.351667	1838.417969	194.216995
9233.054255	5063.351667	1837.423828	183.411667
9233.054255	5063.351667	1836.429688	64.444359
9233.054255	5063.351667	1835.434570	41.625778
9233.054255	5063.351667	1834.440430	-72.494102
9233.054255	5063.351667	1833.445313	12.782827
9233.054255	5063.351667	1832.450195	76.396843
9233.054255	5063.351667	1831.454102	12.712353
9233.054255	5063.351667	1830.458984	217.910294
9233.054255	5063.351667	1829.462891	120.586128
9233.054255	5063.351667	1828.466797	-132.704559
9233.054255	5063.351667	1827.470703	0.372747
9233.054255	5063.351667	1826.474609	94.999237
9233.054255	5063.351667	1825.478516	19.283840
9233.054255	5063.351667	1824.481445	149.802765
9233.054255	5063.351667	1823.484375	78.861710
9233.054255	5063.351667	1822.487305	-28.029028
9233.054255	5063.351667	1821.490234	147.898682
9233.054255	5063.351667	1820.493164	-16.513800
9233.054255	5063.351667	1819.495117	132.950287
9233.054255	5063.351667	1818.498047	148.201843
9233.054255	5063.351667	1817.500000	55.659168
9233.054255	5063.351667	1816.500977	123.549309
9233.054255	5063.351667	1815.502930	47.757942
9233.054255	5063.351667	1814.504883	-111.799973
9233.054255	5063.351667	1813.505859	80.447678
9233.054255	5063.351667	1812.506836	160.148636
9233.054255	5063.351667	1811.507813	172.816193
9233.054255	5063.351667	1810.508789	113.704834
9233.054255	5063.351667	1809.508789	-36.275517
9233.054255	5063.351667	1808.508789	146.086472
9233.054255	5063.351667	1807.508789	187.325592
9233.054255	5063.351667	1806.508789	37.336971
9233.054255	5063.351667	1805.508789	-24.216661
9233.054255	5063.351667	1804.508789	28.893824
9233.054255	5063.351667	1803.507813	184.660248
9233.054255	5063.351667	1802.506836	278.251160
9233.054255	5063.351667	1801.505859	324.025574
9233.054255	5063.351667	1800.504883	97.621857
9233.054255	5063.351667	1799.502930	-54.738800
9233.054255	5063.351667	1798.501953	-40.036953
9233.054255	5063.351667	1797.500000	113.002167
9233.054255	5063.351667	1796.498047	87.055138
9233.054255	5063.351667	1795.496094	-217.941849
9233.054255	5063.351667	1794.493164	-84.124115
9233.054255	5063.351667	1793.491211	125.898186
9233.054255	5063.351667	1792.488281	209.482574
9233.054255	5063.351667	1791.485352	171.466934
9233.054255	5063.351667	1790.482422	59.572651
9233.054255	5063.351667	1789.478516	138.259964
9233.054255	5063.351667	1788.475586	123.997185
9233.054255	5063.351667	1787.471680	-28.406292
9233.054255	5063.351667	1786.467773	88.245018
9233.054255	5063.351667	1785.463867	81.038742
9233.054255	5063.351667	1784.459961	0.024445
9233.054255	5063.351667	1783.455078	209.297928
9233.054255	5063.351667	1782.450195	130.598770
9233.054255	5063.351667	1781.445313	85.193336
9233.054255	5063.351667	1780.440430	-24.438116
9233.054255	5063.351667	1779.435547	82.300865
9233.054255	5063.351667	1778.429688	112.892662
9233.054255	5063.351667	1777.424805	333.576904
9233.054255	5063.351667	1776.418945	216.707275
9233.054255	5063.351667	1775.413086	78.462051
9233.054255	5063.351667	1774.406250	218.152634
9233.054255	5063.351667	1773.400391	77.511154
9233.054255	5063.351667	1772.393555	5.744506
9233.054255	5063.351667	1771.386719	-13.802794
9233.054255	5063.351667	1770.379883	37.826122
9233.054255	5063.351667	1769.373047	-3.154060
9233.054255	5063.351667	1768.365234	88.712395
9233.054255	5063.351667	1767.358398	-47.227669
9233.054255	5063.351667	1766.350586	87.227386
9233.054255	5063.351667	1765.342773	112.511177
9233.054255	5063.351667	1764.334961	272.887268
9233.054255	5063.351667	1763.326172	165.304413
9233.054255	5063.351667	1762.318359	121.713348
9233.054255	5063.351667	1761.309570	18.860302
9233.054255	5063.351667	1760.300781	13.140066
9233.054255	5063.351667	1759.291016	14.485641
9233.054255	5063.351667	1758.282227	162.620560
9233.054255	5063.351667	1757.272461	-8.984611
9233.054255	5063.351667	1756.262695	1.714502
9233.054255	5063.351667	1755.252930	-243.245056
9233.054255	5063.351667	1754.243164	-36.175846
9233.054255	5063.351667	1753.233398	54.843956
9233.054255	5063.351667	1752.222656	46.438549
9233.054255	5063.351667	1751.211914	127.867363
9233.054255	5063.351667	1750.201172	105.183105
9233.054255	5063.351667	1749.190430	32.821301
9233.054255	5063.351667	1748.179688	71.538757
9233.054255	5063.351667	1747.167969	-33.956493
9233.054255	5063.351667	1746.156250	120.451645
9233.054255	5063.351667	1745.144531	43.254387
9233.054255	5063.351667	1744.132813	55.796471
9233.054255	5063.351667	1743.121094	-30.885960
9233.054255	5063.351667	1742.108398	-1.889726
9233.054255	5063.351667	1741.095703	-242.043808
9233.054255	5063.351667	1740.083008	32.345169
9233.054255	5063.351667	1739.070313	-47.350670
9233.054255	5063.351667	1738.057617	0.337474
9233.054255	5063.351667	1737.043945	-77.047729
9233.054255	5063.351667	1736.030273	-38.887791
9233.054255	5063.351667	1735.016602	-3.141618
9233.054255	5063.351667	1734.002930	-5.166564
9233.054255	5063.351667	1732.989258	44.621437
9233.054255	5063.351667	1731.974609	47.218025
9233.054255	5063.351667	1730.959961	-60.958279
9233.054255	5063.351667	1729.945313	31.087744
9233.054255	5063.351667	1728.930664	35.920650
9233.054255	5063.351667	1727.916016	38.356953
9233.054255	5063.351667	1726.900391	224.378479
9233.054255	5063.351667	1725.885742	-126.364822
9233.054255	5063.351667	1724.870117	-107.548111
9233.054255	5063.351667	1723.853516	-4.076637
9233.054255	5063.351667	1722.837891	61.679283
9233.054255	5063.351667	1721.822266	-41.970440
9233.054255	5063.351667	1720.805664	-211.464096
9233.054255	5063.351667	1719.789063	143.353653
9233.054255	5063.351667	1718.772461	-216.587372
9233.054255	5063.351667	1717.754883	39.307690
9233.054255	5063.351667	1716.738281	-40.938435
9233.054255	5063.351667	1715.720703	163.064896
9233.054255	5063.351667	1714.703125	113.280823
9233.054255	5063.351667	1713.685547	-124.391037
9233.054255	5063.351667	1712.667969	37.134472
9233.054255	5063.351667	1711.649414	182.124863
9233.054255	5063.351667	1710.630859	59.463367
9233.054255	5063.351667	1709.612305	47.099426
9233.054255	5063.351667	1708.593750	154.354553
9233.054255	5063.351667	1707.575195	41.039505
9233.054255	5063.351667	1706.555664	-32.403519
9233.054255	5063.351667	1705.536133	-141.026642
9233.054255	5063.351667	1704.516602	116.067833
9233.054255	5063.351667	1703.497070	33.168255
9233.054255	5063.351667	1702.477539	109.616676
9233.054255	5063.351667	1701.457031	146.165680
9233.054255	5063.351667	1700.437500	271.684875
9233.054255	5063.351667	1699.416992	-12.743704
9233.054255	5063.351667	1698.395508	-158.947006
9233.054255	5063.351667	1697.375000	17.954535
9233.054255	5063.351667	1696.354492	157.303329
9233.054255	5063.351667	1695.333008	184.227753
9233.054255	5063.351667	1694.311523	-4.154914
9233.054255	5063.351667	1693.290039	85.886078
9233.054255	5063.351667	1692.267578	-128.204529
9233.054255	5063.351667	1691.246094	-40.578983
9233.054255	5063.351667	1690.223633	-6.799302
9233.054255	5063.351667	1689.201172	76.024391
9233.054255	5063.351667	1688.178711	18.557455
9233.054255	5063.351667	1687.155273	0.800183
9233.054255	5063.351667	1686.132813	-269.289001
9233.054255	5063.351667	1685.109375	16.602583
9233.054255	5063.351667	1684.085938	1.097437
9233.054255	5063.351667	1683.062500	11.250588
9233.054255	5063.351667	1682.039063	7.364151
9233.054255	5063.351667	1681.014648	169.156052
9233.054255	5063.351667	1679.990234	15.831877
9233.054255	5063.351667	1678.965820	128.507248
9233.054255	5063.351667	1677.941406	38.172756
9233.054255	5063.351667	1676.916992	62.120781
9233.054255	5063.351667	1675.891602	165.305466
9233.054255	5063.351667	1674.866211	137.871033
9233.054255	5063.351667	1673.840820	-45.744610
9233.054255	5063.351667	1672.815430	6.050707
9233.054255	5063.351667	1671.790039	-84.325623
9233.054255	5063.351667	1670.763672	170.064835
9233.054255	5063.351667	1669.737305	49.357651
9233.054255	5063.351667	1668.710938	80.029793
9233.054255	5063.351667	1667.684570	82.726212
9233.054255	5063.351667	1666.658203	27.206110
9233.054255	5063.351667	1665.630859	22.877550
9233.054255	5063.351667	1664.603516	58.081314
9233.054255	5063.351667	1663.576172	-106.815956
9233.054255	5063.351667	1662.548828	98.142220
9233.054255	5063.351667	1661.520508	63.475178
9233.054255	5063.351667	1660.493164	191.551788
9233.054255	5063.351667	1659.464844	61.530373
9233.054255	5063.351667	1658.436523	45.416908
9233.054255	5063.351667	1657.408203	305.801666
9233.054255	5063.351667	1656.378906	178.088699
9233.054255	5063.351667	1655.350586	294.296448
9233.054255	5063.351667	1654.321289	175.884888
9233.054255	5063.351667	1653.291992	157.338562
9233.054255	5063.351667	1652.261719	291.987244
9233.054255	5063.351667	1651.232422	182.871994
9233.054255	5063.351667	1650.202148	83.058121
9233.054255	5063.351667	1649.171875	238.469727
9233.054255	5063.351667	1648.141602	173.444183
9233.054255	5063.351667	1647.111328	310.190979
9233.054255	5063.351667	1646.080078	321.655945
9233.054255	5063.351667	1645.049805	353.969299
9233.054255	5063.351667	1644.018555	305.127777
9233.054255	5063.351667	1642.987305	395.330963
9233.054255	5063.351667	1641.955078	332.564758
9233.054255	5063.351667	1640.923828	552.421326
9233.054255	5063.351667	1639.891602	364.558502
9233.054255	5063.351667	1638.859375	359.684692
9233.054255	5063.351667	1637.827148	528.432251
9233.054255	5063.351667	1636.794922	627.663025
9233.054255	5063.351667	1635.761719	495.419434
9233.054255	5063.351667	1634.729492	344.711792
9233.054255	5063.351667	1633.696289	464.702698
9233.054255	5063.351667	1632.662109	672.522522
9233.054255	5063.351667	1631.628906	480.209839
9233.054255	5063.351667	1630.594727	435.923370
9233.054255	5063.351667	1629.561523	555.768127
9233.054255	5063.351667	1628.527344	615.466248
9233.054255	5063.351667	1627.493164	552.670593
9233.054255	5063.351667	1626.458008	670.080872
9233.054255	5063.351667	1625.423828	600.357849
9233.054255	5063.351667	1624.388672	662.279297
9233.054255	5063.351667	1623.353516	527.920898
9233.054255	5063.351667	1622.318359	612.906311
9233.054255	5063.351667	1621.282227	635.534729
9233.054255	5063.351667	1620.247070	665.078369
9233.054255	5063.351667	1619.210938	673.839294
9233.054255	5063.351667	1618.174805	590.330811
9233.054255	5063.351667	1617.137695	566.807312
9233.054255	5063.351667	1616.101563	494.876831
9233.054255	5063.351667	1615.064453	625.827881
9233.054255	5063.351667	1614.027344	535.469604
9233.054255	5063.351667	1612.990234	723.969482
9233.054255	5063.351667	1611.953125	511.521515
9233.054255	5063.351667	1610.916016	430.452271
9233.054255	5063.351667	1609.877930	586.618774
9233.054255	5063.351667	1608.839844	526.288147
9233.054255	5063.351667	1607.801758	622.525330
9233.054255	5063.351667	1606.763672	836.112183
9233.054255	5063.351667	1605.724609	722.845093
9233.054255	5063.351667	1604.685547	595.822205
9233.054255	5063.351667	1603.646484	770.191528
9233.054255	5063.351667	1602.607422	824.905701
9233.054255	5063.351667	1601.568359	718.647034
9233.054255	5063.351667	1600.528320	773.357300
9233.054255	5063.351667	1599.489258	779.789001
9233.054255	5063.351667	1598.449219	751.750366
9233.054255	5063.351667	1597.408203	748.998779
9233.054255	5063.351667	1596.368164	822.067810
9233.054255	5063.351667	1595.327148	837.694519
9233.054255	5063.351667	1594.287109	642.074463
9233.054255	5063.351667	1593.246094	754.173279
9233.054255	5063.351667	1592.204102	847.871399
9233.054255	5063.351667	1591.163086	523.875061
9233.054255	5063.351667	1590.121094	679.554321
9233.054255	5063.351667	1589.079102	793.891968
9233.054255	5063.351667	1588.037109	713.244873
9233.054255	5063.351667	1586.995117	754.178040
9233.054255	5063.351667	1585.953125	652.962585
9233.054255	5063.351667	1584.910156	742.051208
9233.054255	5063.351667	1583.867188	698.196350
9233.054255	5063.351667	1582.824219	700.200256
9233.054255	5063.351667	1581.781250	713.672668
9233.054255	5063.351667	1580.737305	628.664368
9233.054255	5063.351667	1579.693359	724.612976
9233.054255	5063.351667	1578.649414	884.648926
9233.054255	5063.351667	1577.605469	646.340149
9233.054255	5063.351667	1576.561523	696.510315
9233.054255	5063.351667	1575.516602	739.809753
9233.054255	5063.351667	1574.472656	753.376892
9233.054255	5063.351667	1573.427734	558.809692
9233.054255	5063.351667	1572.381836	645.616516
