#X		#Y		#Wave		#Intensity
10270.692553	5523.941667	1999.946289	-4.804729
10270.692553	5523.941667	1998.981445	21.353340
10270.692553	5523.941667	1998.017578	57.953217
10270.692553	5523.941667	1997.052734	104.524689
10270.692553	5523.941667	1996.088867	9.925863
10270.692553	5523.941667	1995.124023	-32.547459
10270.692553	5523.941667	1994.159180	-273.076172
10270.692553	5523.941667	1993.193359	38.757843
10270.692553	5523.941667	1992.228516	80.677551
10270.692553	5523.941667	1991.262695	120.167961
10270.692553	5523.941667	1990.296875	8.734591
10270.692553	5523.941667	1989.331055	-77.855934
10270.692553	5523.941667	1988.365234	73.144493
10270.692553	5523.941667	1987.398438	-8.367839
10270.692553	5523.941667	1986.432617	-10.659703
10270.692553	5523.941667	1985.465820	172.545883
10270.692553	5523.941667	1984.499023	98.629318
10270.692553	5523.941667	1983.532227	27.258835
10270.692553	5523.941667	1982.565430	37.511887
10270.692553	5523.941667	1981.597656	-70.791862
10270.692553	5523.941667	1980.629883	-230.889252
10270.692553	5523.941667	1979.662109	24.048267
10270.692553	5523.941667	1978.694336	2.359986
10270.692553	5523.941667	1977.726563	-58.784664
10270.692553	5523.941667	1976.758789	70.201736
10270.692553	5523.941667	1975.790039	-101.921234
10270.692553	5523.941667	1974.821289	78.914215
10270.692553	5523.941667	1973.852539	13.005569
10270.692553	5523.941667	1972.883789	102.551712
10270.692553	5523.941667	1971.915039	-108.780670
10270.692553	5523.941667	1970.945313	-48.774666
10270.692553	5523.941667	1969.975586	-107.095894
10270.692553	5523.941667	1969.005859	78.648003
10270.692553	5523.941667	1968.036133	-53.553894
10270.692553	5523.941667	1967.066406	151.871490
10270.692553	5523.941667	1966.096680	76.412285
10270.692553	5523.941667	1965.125977	190.652924
10270.692553	5523.941667	1964.155273	46.307686
10270.692553	5523.941667	1963.184570	-4.405734
10270.692553	5523.941667	1962.213867	-30.463919
10270.692553	5523.941667	1961.242188	-150.018600
10270.692553	5523.941667	1960.271484	-11.139345
10270.692553	5523.941667	1959.299805	98.182961
10270.692553	5523.941667	1958.328125	25.456547
10270.692553	5523.941667	1957.356445	14.254746
10270.692553	5523.941667	1956.384766	81.754425
10270.692553	5523.941667	1955.412109	-25.304327
10270.692553	5523.941667	1954.439453	22.538904
10270.692553	5523.941667	1953.467773	-45.126595
10270.692553	5523.941667	1952.495117	-4.645871
10270.692553	5523.941667	1951.521484	161.115112
10270.692553	5523.941667	1950.548828	19.807442
10270.692553	5523.941667	1949.575195	143.773697
10270.692553	5523.941667	1948.601563	81.105179
10270.692553	5523.941667	1947.627930	-25.718313
10270.692553	5523.941667	1946.654297	-39.233593
10270.692553	5523.941667	1945.680664	-101.813393
10270.692553	5523.941667	1944.706055	95.692848
10270.692553	5523.941667	1943.732422	-35.562782
10270.692553	5523.941667	1942.757813	191.295700
10270.692553	5523.941667	1941.783203	126.283508
10270.692553	5523.941667	1940.807617	-105.406731
10270.692553	5523.941667	1939.833008	-126.215675
10270.692553	5523.941667	1938.857422	149.513031
10270.692553	5523.941667	1937.881836	20.860065
10270.692553	5523.941667	1936.906250	191.121796
10270.692553	5523.941667	1935.930664	6.175642
10270.692553	5523.941667	1934.955078	51.485962
10270.692553	5523.941667	1933.978516	33.122429
10270.692553	5523.941667	1933.001953	-7.266830
10270.692553	5523.941667	1932.025391	-28.064098
10270.692553	5523.941667	1931.048828	105.304405
10270.692553	5523.941667	1930.072266	38.005234
10270.692553	5523.941667	1929.094727	-51.286423
10270.692553	5523.941667	1928.118164	-98.973938
10270.692553	5523.941667	1927.140625	48.966351
10270.692553	5523.941667	1926.163086	3.714890
10270.692553	5523.941667	1925.184570	9.805294
10270.692553	5523.941667	1924.207031	-111.189178
10270.692553	5523.941667	1923.228516	-29.347404
10270.692553	5523.941667	1922.250000	81.773827
10270.692553	5523.941667	1921.271484	-105.129547
10270.692553	5523.941667	1920.292969	-20.911360
10270.692553	5523.941667	1919.314453	31.528650
10270.692553	5523.941667	1918.334961	76.620598
10270.692553	5523.941667	1917.355469	31.384901
10270.692553	5523.941667	1916.375977	176.489243
10270.692553	5523.941667	1915.396484	-68.819611
10270.692553	5523.941667	1914.416992	15.252989
10270.692553	5523.941667	1913.436523	-115.327698
10270.692553	5523.941667	1912.457031	173.522598
10270.692553	5523.941667	1911.476563	-15.566089
10270.692553	5523.941667	1910.496094	61.084965
10270.692553	5523.941667	1909.515625	37.782150
10270.692553	5523.941667	1908.534180	60.771000
10270.692553	5523.941667	1907.552734	203.109192
10270.692553	5523.941667	1906.572266	53.110310
10270.692553	5523.941667	1905.590820	-14.047835
10270.692553	5523.941667	1904.608398	-88.495384
10270.692553	5523.941667	1903.626953	46.416611
10270.692553	5523.941667	1902.644531	76.615891
10270.692553	5523.941667	1901.663086	38.657719
10270.692553	5523.941667	1900.680664	85.852608
10270.692553	5523.941667	1899.698242	-8.061933
10270.692553	5523.941667	1898.714844	-131.137329
10270.692553	5523.941667	1897.732422	35.170067
10270.692553	5523.941667	1896.749023	-68.443558
10270.692553	5523.941667	1895.765625	-116.127365
10270.692553	5523.941667	1894.782227	81.637016
10270.692553	5523.941667	1893.798828	82.509575
10270.692553	5523.941667	1892.814453	22.638052
10270.692553	5523.941667	1891.831055	38.067238
10270.692553	5523.941667	1890.846680	-177.213852
10270.692553	5523.941667	1889.862305	-200.626724
10270.692553	5523.941667	1888.877930	-29.852217
10270.692553	5523.941667	1887.892578	-113.985802
10270.692553	5523.941667	1886.908203	-62.218868
10270.692553	5523.941667	1885.922852	-126.935562
10270.692553	5523.941667	1884.937500	-164.962601
10270.692553	5523.941667	1883.952148	158.357071
10270.692553	5523.941667	1882.965820	13.575416
10270.692553	5523.941667	1881.980469	137.922073
10270.692553	5523.941667	1880.994141	63.457096
10270.692553	5523.941667	1880.007813	18.084324
10270.692553	5523.941667	1879.021484	-187.197372
10270.692553	5523.941667	1878.035156	4.858942
10270.692553	5523.941667	1877.047852	-18.727116
10270.692553	5523.941667	1876.061523	1.265517
10270.692553	5523.941667	1875.074219	122.919182
10270.692553	5523.941667	1874.086914	53.283310
10270.692553	5523.941667	1873.098633	160.327667
10270.692553	5523.941667	1872.111328	-250.500977
10270.692553	5523.941667	1871.123047	120.223343
10270.692553	5523.941667	1870.135742	33.640839
10270.692553	5523.941667	1869.147461	-43.254234
10270.692553	5523.941667	1868.158203	87.800636
10270.692553	5523.941667	1867.169922	-18.119673
10270.692553	5523.941667	1866.180664	88.676262
10270.692553	5523.941667	1865.192383	-29.322546
10270.692553	5523.941667	1864.203125	149.881897
10270.692553	5523.941667	1863.213867	106.763054
10270.692553	5523.941667	1862.223633	-76.437057
10270.692553	5523.941667	1861.234375	114.693581
10270.692553	5523.941667	1860.244141	1.536603
10270.692553	5523.941667	1859.253906	-99.527237
10270.692553	5523.941667	1858.263672	-9.917008
10270.692553	5523.941667	1857.273438	69.988243
10270.692553	5523.941667	1856.282227	-69.687714
10270.692553	5523.941667	1855.291992	-13.960404
10270.692553	5523.941667	1854.300781	53.785011
10270.692553	5523.941667	1853.309570	114.252625
10270.692553	5523.941667	1852.317383	177.086639
10270.692553	5523.941667	1851.326172	-25.242001
10270.692553	5523.941667	1850.333984	56.833546
10270.692553	5523.941667	1849.342773	-37.019405
10270.692553	5523.941667	1848.350586	25.715115
10270.692553	5523.941667	1847.357422	88.406059
10270.692553	5523.941667	1846.365234	-39.172695
10270.692553	5523.941667	1845.372070	-72.833420
10270.692553	5523.941667	1844.379883	61.987881
10270.692553	5523.941667	1843.386719	6.619485
10270.692553	5523.941667	1842.393555	30.652411
10270.692553	5523.941667	1841.399414	-15.110182
10270.692553	5523.941667	1840.406250	191.669296
10270.692553	5523.941667	1839.412109	-58.553104
10270.692553	5523.941667	1838.417969	1.451400
10270.692553	5523.941667	1837.423828	162.371155
10270.692553	5523.941667	1836.429688	3.558559
10270.692553	5523.941667	1835.434570	92.284416
10270.692553	5523.941667	1834.440430	65.636574
10270.692553	5523.941667	1833.445313	-30.684074
10270.692553	5523.941667	1832.450195	115.567993
10270.692553	5523.941667	1831.454102	76.854904
10270.692553	5523.941667	1830.458984	100.551765
10270.692553	5523.941667	1829.462891	88.211861
10270.692553	5523.941667	1828.466797	150.245819
10270.692553	5523.941667	1827.470703	87.467957
10270.692553	5523.941667	1826.474609	-128.836716
10270.692553	5523.941667	1825.478516	50.653942
10270.692553	5523.941667	1824.481445	138.930191
10270.692553	5523.941667	1823.484375	-170.838425
10270.692553	5523.941667	1822.487305	-178.485046
10270.692553	5523.941667	1821.490234	103.834908
10270.692553	5523.941667	1820.493164	31.393747
10270.692553	5523.941667	1819.495117	97.904297
10270.692553	5523.941667	1818.498047	229.037125
10270.692553	5523.941667	1817.500000	173.301025
10270.692553	5523.941667	1816.500977	-16.523973
10270.692553	5523.941667	1815.502930	90.539505
10270.692553	5523.941667	1814.504883	125.734512
10270.692553	5523.941667	1813.505859	0.558863
10270.692553	5523.941667	1812.506836	38.097404
10270.692553	5523.941667	1811.507813	-108.595329
10270.692553	5523.941667	1810.508789	196.758835
10270.692553	5523.941667	1809.508789	11.778729
10270.692553	5523.941667	1808.508789	-8.198769
10270.692553	5523.941667	1807.508789	177.368195
10270.692553	5523.941667	1806.508789	33.042927
10270.692553	5523.941667	1805.508789	53.610458
10270.692553	5523.941667	1804.508789	43.087238
10270.692553	5523.941667	1803.507813	75.532364
10270.692553	5523.941667	1802.506836	93.608070
10270.692553	5523.941667	1801.505859	106.874748
10270.692553	5523.941667	1800.504883	249.011948
10270.692553	5523.941667	1799.502930	133.306213
10270.692553	5523.941667	1798.501953	-180.438080
10270.692553	5523.941667	1797.500000	23.615932
10270.692553	5523.941667	1796.498047	179.857208
10270.692553	5523.941667	1795.496094	21.209433
10270.692553	5523.941667	1794.493164	3.271501
10270.692553	5523.941667	1793.491211	-143.421448
10270.692553	5523.941667	1792.488281	-15.985956
10270.692553	5523.941667	1791.485352	142.349884
10270.692553	5523.941667	1790.482422	50.423832
10270.692553	5523.941667	1789.478516	13.289713
10270.692553	5523.941667	1788.475586	209.548370
10270.692553	5523.941667	1787.471680	241.394531
10270.692553	5523.941667	1786.467773	23.213520
10270.692553	5523.941667	1785.463867	-228.238953
10270.692553	5523.941667	1784.459961	-32.208145
10270.692553	5523.941667	1783.455078	-21.879633
10270.692553	5523.941667	1782.450195	-73.441216
10270.692553	5523.941667	1781.445313	65.270050
10270.692553	5523.941667	1780.440430	-5.375851
10270.692553	5523.941667	1779.435547	80.898285
10270.692553	5523.941667	1778.429688	-80.121574
10270.692553	5523.941667	1777.424805	-58.101543
10270.692553	5523.941667	1776.418945	111.205223
10270.692553	5523.941667	1775.413086	64.214630
10270.692553	5523.941667	1774.406250	17.207657
10270.692553	5523.941667	1773.400391	-172.307739
10270.692553	5523.941667	1772.393555	-64.975571
10270.692553	5523.941667	1771.386719	-7.572193
10270.692553	5523.941667	1770.379883	40.282162
10270.692553	5523.941667	1769.373047	40.622524
10270.692553	5523.941667	1768.365234	-11.271298
10270.692553	5523.941667	1767.358398	157.440094
10270.692553	5523.941667	1766.350586	-48.688465
10270.692553	5523.941667	1765.342773	53.499493
10270.692553	5523.941667	1764.334961	-15.087941
10270.692553	5523.941667	1763.326172	-31.537321
10270.692553	5523.941667	1762.318359	51.527206
10270.692553	5523.941667	1761.309570	316.976563
10270.692553	5523.941667	1760.300781	-154.489624
10270.692553	5523.941667	1759.291016	46.873020
10270.692553	5523.941667	1758.282227	94.196465
10270.692553	5523.941667	1757.272461	-140.293152
10270.692553	5523.941667	1756.262695	15.869569
10270.692553	5523.941667	1755.252930	-0.839913
10270.692553	5523.941667	1754.243164	-10.478329
10270.692553	5523.941667	1753.233398	-41.442257
10270.692553	5523.941667	1752.222656	-77.163315
10270.692553	5523.941667	1751.211914	-91.621269
10270.692553	5523.941667	1750.201172	-122.660934
10270.692553	5523.941667	1749.190430	51.952942
10270.692553	5523.941667	1748.179688	94.099190
10270.692553	5523.941667	1747.167969	-95.403961
10270.692553	5523.941667	1746.156250	112.072289
10270.692553	5523.941667	1745.144531	-91.607872
10270.692553	5523.941667	1744.132813	-73.232613
10270.692553	5523.941667	1743.121094	-61.985603
10270.692553	5523.941667	1742.108398	86.154366
10270.692553	5523.941667	1741.095703	-18.374155
10270.692553	5523.941667	1740.083008	18.704153
10270.692553	5523.941667	1739.070313	-52.809990
10270.692553	5523.941667	1738.057617	109.223000
10270.692553	5523.941667	1737.043945	-49.630898
10270.692553	5523.941667	1736.030273	145.277008
10270.692553	5523.941667	1735.016602	-284.744751
10270.692553	5523.941667	1734.002930	-9.790961
10270.692553	5523.941667	1732.989258	163.674484
10270.692553	5523.941667	1731.974609	18.910753
10270.692553	5523.941667	1730.959961	-5.678398
10270.692553	5523.941667	1729.945313	-77.406487
10270.692553	5523.941667	1728.930664	81.655159
10270.692553	5523.941667	1727.916016	61.664719
10270.692553	5523.941667	1726.900391	22.806011
10270.692553	5523.941667	1725.885742	-211.432297
10270.692553	5523.941667	1724.870117	-14.968663
10270.692553	5523.941667	1723.853516	-18.613779
10270.692553	5523.941667	1722.837891	-55.225430
10270.692553	5523.941667	1721.822266	37.496365
10270.692553	5523.941667	1720.805664	106.625877
10270.692553	5523.941667	1719.789063	-104.085083
10270.692553	5523.941667	1718.772461	-30.329866
10270.692553	5523.941667	1717.754883	76.256699
10270.692553	5523.941667	1716.738281	4.191288
10270.692553	5523.941667	1715.720703	-42.046738
10270.692553	5523.941667	1714.703125	219.388382
10270.692553	5523.941667	1713.685547	13.361894
10270.692553	5523.941667	1712.667969	-260.713104
10270.692553	5523.941667	1711.649414	-4.200113
10270.692553	5523.941667	1710.630859	-10.687809
10270.692553	5523.941667	1709.612305	100.115829
10270.692553	5523.941667	1708.593750	-49.579201
10270.692553	5523.941667	1707.575195	-142.958420
10270.692553	5523.941667	1706.555664	42.734627
10270.692553	5523.941667	1705.536133	141.561859
10270.692553	5523.941667	1704.516602	83.244980
10270.692553	5523.941667	1703.497070	-141.501099
10270.692553	5523.941667	1702.477539	-99.051315
10270.692553	5523.941667	1701.457031	60.487316
10270.692553	5523.941667	1700.437500	-147.841980
10270.692553	5523.941667	1699.416992	-194.532547
10270.692553	5523.941667	1698.395508	-18.794407
10270.692553	5523.941667	1697.375000	-107.708138
10270.692553	5523.941667	1696.354492	-16.390549
10270.692553	5523.941667	1695.333008	145.056076
10270.692553	5523.941667	1694.311523	130.917709
10270.692553	5523.941667	1693.290039	65.281357
10270.692553	5523.941667	1692.267578	100.200882
10270.692553	5523.941667	1691.246094	4.119549
10270.692553	5523.941667	1690.223633	-122.360855
10270.692553	5523.941667	1689.201172	-92.212959
10270.692553	5523.941667	1688.178711	38.380718
10270.692553	5523.941667	1687.155273	152.525665
10270.692553	5523.941667	1686.132813	93.715302
10270.692553	5523.941667	1685.109375	139.993484
10270.692553	5523.941667	1684.085938	6.398501
10270.692553	5523.941667	1683.062500	195.029114
10270.692553	5523.941667	1682.039063	138.436234
10270.692553	5523.941667	1681.014648	179.850174
10270.692553	5523.941667	1679.990234	218.877731
10270.692553	5523.941667	1678.965820	-10.448709
10270.692553	5523.941667	1677.941406	292.113159
10270.692553	5523.941667	1676.916992	305.334015
10270.692553	5523.941667	1675.891602	166.945969
10270.692553	5523.941667	1674.866211	-83.325813
10270.692553	5523.941667	1673.840820	132.626236
10270.692553	5523.941667	1672.815430	164.360870
10270.692553	5523.941667	1671.790039	165.759140
10270.692553	5523.941667	1670.763672	78.595009
10270.692553	5523.941667	1669.737305	126.512756
10270.692553	5523.941667	1668.710938	265.191284
10270.692553	5523.941667	1667.684570	173.296768
10270.692553	5523.941667	1666.658203	260.634094
10270.692553	5523.941667	1665.630859	231.535721
10270.692553	5523.941667	1664.603516	232.661713
10270.692553	5523.941667	1663.576172	182.574768
10270.692553	5523.941667	1662.548828	281.327820
10270.692553	5523.941667	1661.520508	307.915314
10270.692553	5523.941667	1660.493164	327.489594
10270.692553	5523.941667	1659.464844	261.010040
10270.692553	5523.941667	1658.436523	482.707214
10270.692553	5523.941667	1657.408203	646.195618
10270.692553	5523.941667	1656.378906	537.769409
10270.692553	5523.941667	1655.350586	578.012756
10270.692553	5523.941667	1654.321289	546.212036
10270.692553	5523.941667	1653.291992	604.941711
10270.692553	5523.941667	1652.261719	728.610046
10270.692553	5523.941667	1651.232422	817.390442
10270.692553	5523.941667	1650.202148	901.456665
10270.692553	5523.941667	1649.171875	839.297363
10270.692553	5523.941667	1648.141602	663.470459
10270.692553	5523.941667	1647.111328	856.424438
10270.692553	5523.941667	1646.080078	907.825317
10270.692553	5523.941667	1645.049805	762.132813
10270.692553	5523.941667	1644.018555	748.573303
10270.692553	5523.941667	1642.987305	799.875732
10270.692553	5523.941667	1641.955078	976.233459
10270.692553	5523.941667	1640.923828	696.160156
10270.692553	5523.941667	1639.891602	751.979553
10270.692553	5523.941667	1638.859375	944.365234
10270.692553	5523.941667	1637.827148	884.301758
10270.692553	5523.941667	1636.794922	639.062012
10270.692553	5523.941667	1635.761719	511.906433
10270.692553	5523.941667	1634.729492	845.215332
10270.692553	5523.941667	1633.696289	650.928284
10270.692553	5523.941667	1632.662109	706.470398
10270.692553	5523.941667	1631.628906	708.785583
10270.692553	5523.941667	1630.594727	743.434448
10270.692553	5523.941667	1629.561523	715.639282
10270.692553	5523.941667	1628.527344	870.395203
10270.692553	5523.941667	1627.493164	680.785156
10270.692553	5523.941667	1626.458008	1057.205322
10270.692553	5523.941667	1625.423828	655.089172
10270.692553	5523.941667	1624.388672	781.917847
10270.692553	5523.941667	1623.353516	763.217957
10270.692553	5523.941667	1622.318359	901.470215
10270.692553	5523.941667	1621.282227	991.172180
10270.692553	5523.941667	1620.247070	836.231262
10270.692553	5523.941667	1619.210938	944.319885
10270.692553	5523.941667	1618.174805	1075.410034
10270.692553	5523.941667	1617.137695	872.033203
10270.692553	5523.941667	1616.101563	1132.159546
10270.692553	5523.941667	1615.064453	1177.770874
10270.692553	5523.941667	1614.027344	1004.388977
10270.692553	5523.941667	1612.990234	1236.614990
10270.692553	5523.941667	1611.953125	1180.745972
10270.692553	5523.941667	1610.916016	1168.642822
10270.692553	5523.941667	1609.877930	1165.730591
10270.692553	5523.941667	1608.839844	1201.942383
10270.692553	5523.941667	1607.801758	1083.881958
10270.692553	5523.941667	1606.763672	1278.870239
10270.692553	5523.941667	1605.724609	1202.217896
10270.692553	5523.941667	1604.685547	1233.712646
10270.692553	5523.941667	1603.646484	1209.970093
10270.692553	5523.941667	1602.607422	1218.418335
10270.692553	5523.941667	1601.568359	1192.354736
10270.692553	5523.941667	1600.528320	1265.133057
10270.692553	5523.941667	1599.489258	1278.113403
10270.692553	5523.941667	1598.449219	1091.135620
10270.692553	5523.941667	1597.408203	1414.276489
10270.692553	5523.941667	1596.368164	1114.755249
10270.692553	5523.941667	1595.327148	1058.780273
10270.692553	5523.941667	1594.287109	1158.965454
10270.692553	5523.941667	1593.246094	1057.060791
10270.692553	5523.941667	1592.204102	1200.778809
10270.692553	5523.941667	1591.163086	1101.175049
10270.692553	5523.941667	1590.121094	990.118469
10270.692553	5523.941667	1589.079102	966.266113
10270.692553	5523.941667	1588.037109	992.871338
10270.692553	5523.941667	1586.995117	1028.626953
10270.692553	5523.941667	1585.953125	1128.552979
10270.692553	5523.941667	1584.910156	941.895752
10270.692553	5523.941667	1583.867188	1167.820923
10270.692553	5523.941667	1582.824219	1075.155029
