#X		#Y		#Wave		#Intensity
10056.193085	4806.580000	1999.946289	-111.863831
10056.193085	4806.580000	1998.981445	3.559457
10056.193085	4806.580000	1998.017578	78.076401
10056.193085	4806.580000	1997.052734	-23.363865
10056.193085	4806.580000	1996.088867	93.285858
10056.193085	4806.580000	1995.124023	95.957207
10056.193085	4806.580000	1994.159180	-22.715807
10056.193085	4806.580000	1993.193359	-57.135868
10056.193085	4806.580000	1992.228516	57.022896
10056.193085	4806.580000	1991.262695	89.467667
10056.193085	4806.580000	1990.296875	42.719112
10056.193085	4806.580000	1989.331055	52.915096
10056.193085	4806.580000	1988.365234	-18.519417
10056.193085	4806.580000	1987.398438	-82.493355
10056.193085	4806.580000	1986.432617	-92.020370
10056.193085	4806.580000	1985.465820	-24.880884
10056.193085	4806.580000	1984.499023	-17.083586
10056.193085	4806.580000	1983.532227	-4.332893
10056.193085	4806.580000	1982.565430	-95.364952
10056.193085	4806.580000	1981.597656	-45.518291
10056.193085	4806.580000	1980.629883	-5.558482
10056.193085	4806.580000	1979.662109	-2.648922
10056.193085	4806.580000	1978.694336	20.026495
10056.193085	4806.580000	1977.726563	198.247253
10056.193085	4806.580000	1976.758789	55.512081
10056.193085	4806.580000	1975.790039	43.644661
10056.193085	4806.580000	1974.821289	-140.937073
10056.193085	4806.580000	1973.852539	59.428226
10056.193085	4806.580000	1972.883789	0.731464
10056.193085	4806.580000	1971.915039	-82.595024
10056.193085	4806.580000	1970.945313	-8.075638
10056.193085	4806.580000	1969.975586	98.474121
10056.193085	4806.580000	1969.005859	10.273203
10056.193085	4806.580000	1968.036133	65.045944
10056.193085	4806.580000	1967.066406	-124.118576
10056.193085	4806.580000	1966.096680	132.677307
10056.193085	4806.580000	1965.125977	29.790611
10056.193085	4806.580000	1964.155273	197.826691
10056.193085	4806.580000	1963.184570	45.739845
10056.193085	4806.580000	1962.213867	194.032272
10056.193085	4806.580000	1961.242188	-4.746136
10056.193085	4806.580000	1960.271484	69.693169
10056.193085	4806.580000	1959.299805	13.718361
10056.193085	4806.580000	1958.328125	-71.746887
10056.193085	4806.580000	1957.356445	44.489544
10056.193085	4806.580000	1956.384766	-97.492043
10056.193085	4806.580000	1955.412109	-104.203682
10056.193085	4806.580000	1954.439453	14.447212
10056.193085	4806.580000	1953.467773	-7.017584
10056.193085	4806.580000	1952.495117	-3.899714
10056.193085	4806.580000	1951.521484	136.788376
10056.193085	4806.580000	1950.548828	4.799954
10056.193085	4806.580000	1949.575195	52.127354
10056.193085	4806.580000	1948.601563	-30.685196
10056.193085	4806.580000	1947.627930	-52.094971
10056.193085	4806.580000	1946.654297	56.583328
10056.193085	4806.580000	1945.680664	20.448574
10056.193085	4806.580000	1944.706055	62.836933
10056.193085	4806.580000	1943.732422	-7.621913
10056.193085	4806.580000	1942.757813	7.783181
10056.193085	4806.580000	1941.783203	15.828363
10056.193085	4806.580000	1940.807617	60.645218
10056.193085	4806.580000	1939.833008	110.349258
10056.193085	4806.580000	1938.857422	-28.663780
10056.193085	4806.580000	1937.881836	-111.269608
10056.193085	4806.580000	1936.906250	-61.559284
10056.193085	4806.580000	1935.930664	95.901039
10056.193085	4806.580000	1934.955078	-13.617376
10056.193085	4806.580000	1933.978516	36.047337
10056.193085	4806.580000	1933.001953	-4.878972
10056.193085	4806.580000	1932.025391	69.239700
10056.193085	4806.580000	1931.048828	96.836723
10056.193085	4806.580000	1930.072266	117.083252
10056.193085	4806.580000	1929.094727	22.355032
10056.193085	4806.580000	1928.118164	37.714352
10056.193085	4806.580000	1927.140625	145.981781
10056.193085	4806.580000	1926.163086	-63.605110
10056.193085	4806.580000	1925.184570	69.078941
10056.193085	4806.580000	1924.207031	8.651892
10056.193085	4806.580000	1923.228516	133.938705
10056.193085	4806.580000	1922.250000	-16.870413
10056.193085	4806.580000	1921.271484	-40.619900
10056.193085	4806.580000	1920.292969	87.038651
10056.193085	4806.580000	1919.314453	-9.973091
10056.193085	4806.580000	1918.334961	56.598045
10056.193085	4806.580000	1917.355469	-123.360435
10056.193085	4806.580000	1916.375977	77.407608
10056.193085	4806.580000	1915.396484	-70.779678
10056.193085	4806.580000	1914.416992	93.306496
10056.193085	4806.580000	1913.436523	23.202995
10056.193085	4806.580000	1912.457031	-137.097137
10056.193085	4806.580000	1911.476563	-148.632782
10056.193085	4806.580000	1910.496094	5.575887
10056.193085	4806.580000	1909.515625	20.813824
10056.193085	4806.580000	1908.534180	45.786320
10056.193085	4806.580000	1907.552734	-38.879326
10056.193085	4806.580000	1906.572266	-33.401489
10056.193085	4806.580000	1905.590820	-8.451430
10056.193085	4806.580000	1904.608398	-44.384827
10056.193085	4806.580000	1903.626953	34.098103
10056.193085	4806.580000	1902.644531	217.196686
10056.193085	4806.580000	1901.663086	-8.578333
10056.193085	4806.580000	1900.680664	-27.483219
10056.193085	4806.580000	1899.698242	7.125007
10056.193085	4806.580000	1898.714844	163.309982
10056.193085	4806.580000	1897.732422	-6.392570
10056.193085	4806.580000	1896.749023	-35.039272
10056.193085	4806.580000	1895.765625	62.707222
10056.193085	4806.580000	1894.782227	48.622612
10056.193085	4806.580000	1893.798828	134.151047
10056.193085	4806.580000	1892.814453	129.757004
10056.193085	4806.580000	1891.831055	23.347387
10056.193085	4806.580000	1890.846680	-34.466038
10056.193085	4806.580000	1889.862305	2.419750
10056.193085	4806.580000	1888.877930	19.862482
10056.193085	4806.580000	1887.892578	93.108826
10056.193085	4806.580000	1886.908203	86.243523
10056.193085	4806.580000	1885.922852	-71.045593
10056.193085	4806.580000	1884.937500	-97.303383
10056.193085	4806.580000	1883.952148	-109.011475
10056.193085	4806.580000	1882.965820	-47.985241
10056.193085	4806.580000	1881.980469	42.098423
10056.193085	4806.580000	1880.994141	18.218784
10056.193085	4806.580000	1880.007813	42.803188
10056.193085	4806.580000	1879.021484	135.207916
10056.193085	4806.580000	1878.035156	9.548036
10056.193085	4806.580000	1877.047852	31.663382
10056.193085	4806.580000	1876.061523	-33.415760
10056.193085	4806.580000	1875.074219	107.306831
10056.193085	4806.580000	1874.086914	163.243454
10056.193085	4806.580000	1873.098633	115.079094
10056.193085	4806.580000	1872.111328	-44.385338
10056.193085	4806.580000	1871.123047	-85.260651
10056.193085	4806.580000	1870.135742	-58.406055
10056.193085	4806.580000	1869.147461	14.372787
10056.193085	4806.580000	1868.158203	-67.634766
10056.193085	4806.580000	1867.169922	-79.518318
10056.193085	4806.580000	1866.180664	-57.574333
10056.193085	4806.580000	1865.192383	65.842995
10056.193085	4806.580000	1864.203125	-20.999369
10056.193085	4806.580000	1863.213867	49.192360
10056.193085	4806.580000	1862.223633	54.132854
10056.193085	4806.580000	1861.234375	73.546631
10056.193085	4806.580000	1860.244141	18.095581
10056.193085	4806.580000	1859.253906	204.031067
10056.193085	4806.580000	1858.263672	80.972580
10056.193085	4806.580000	1857.273438	-87.899345
10056.193085	4806.580000	1856.282227	182.341309
10056.193085	4806.580000	1855.291992	37.603313
10056.193085	4806.580000	1854.300781	8.657299
10056.193085	4806.580000	1853.309570	-41.992844
10056.193085	4806.580000	1852.317383	42.354248
10056.193085	4806.580000	1851.326172	20.607471
10056.193085	4806.580000	1850.333984	3.670638
10056.193085	4806.580000	1849.342773	-87.961349
10056.193085	4806.580000	1848.350586	133.569839
10056.193085	4806.580000	1847.357422	44.321198
10056.193085	4806.580000	1846.365234	-30.461813
10056.193085	4806.580000	1845.372070	325.701141
10056.193085	4806.580000	1844.379883	84.776314
10056.193085	4806.580000	1843.386719	-16.495279
10056.193085	4806.580000	1842.393555	55.493462
10056.193085	4806.580000	1841.399414	2.343163
10056.193085	4806.580000	1840.406250	-17.130674
10056.193085	4806.580000	1839.412109	93.241074
10056.193085	4806.580000	1838.417969	-116.217636
10056.193085	4806.580000	1837.423828	37.365185
10056.193085	4806.580000	1836.429688	58.686199
10056.193085	4806.580000	1835.434570	128.038818
10056.193085	4806.580000	1834.440430	67.614746
10056.193085	4806.580000	1833.445313	91.265511
10056.193085	4806.580000	1832.450195	-41.214104
10056.193085	4806.580000	1831.454102	47.240746
10056.193085	4806.580000	1830.458984	-5.994527
10056.193085	4806.580000	1829.462891	123.187363
10056.193085	4806.580000	1828.466797	14.725314
10056.193085	4806.580000	1827.470703	163.011826
10056.193085	4806.580000	1826.474609	49.747978
10056.193085	4806.580000	1825.478516	18.054314
10056.193085	4806.580000	1824.481445	48.698673
10056.193085	4806.580000	1823.484375	12.182559
10056.193085	4806.580000	1822.487305	-60.294888
10056.193085	4806.580000	1821.490234	8.635890
10056.193085	4806.580000	1820.493164	-71.039818
10056.193085	4806.580000	1819.495117	203.856888
10056.193085	4806.580000	1818.498047	181.621292
10056.193085	4806.580000	1817.500000	37.238728
10056.193085	4806.580000	1816.500977	-16.125416
10056.193085	4806.580000	1815.502930	7.117246
10056.193085	4806.580000	1814.504883	-41.472084
10056.193085	4806.580000	1813.505859	130.091064
10056.193085	4806.580000	1812.506836	153.231750
10056.193085	4806.580000	1811.507813	73.484581
10056.193085	4806.580000	1810.508789	41.580475
10056.193085	4806.580000	1809.508789	-54.895580
10056.193085	4806.580000	1808.508789	154.658310
10056.193085	4806.580000	1807.508789	-11.160732
10056.193085	4806.580000	1806.508789	26.197548
10056.193085	4806.580000	1805.508789	-24.884562
10056.193085	4806.580000	1804.508789	41.088997
10056.193085	4806.580000	1803.507813	11.477040
10056.193085	4806.580000	1802.506836	-3.816168
10056.193085	4806.580000	1801.505859	133.680054
10056.193085	4806.580000	1800.504883	-8.188154
10056.193085	4806.580000	1799.502930	155.467773
10056.193085	4806.580000	1798.501953	-38.888630
10056.193085	4806.580000	1797.500000	96.040733
10056.193085	4806.580000	1796.498047	-5.246980
10056.193085	4806.580000	1795.496094	74.732094
10056.193085	4806.580000	1794.493164	123.660851
10056.193085	4806.580000	1793.491211	-11.011607
10056.193085	4806.580000	1792.488281	-36.015209
10056.193085	4806.580000	1791.485352	22.376806
10056.193085	4806.580000	1790.482422	125.995483
10056.193085	4806.580000	1789.478516	48.508984
10056.193085	4806.580000	1788.475586	-9.913668
10056.193085	4806.580000	1787.471680	-127.867805
10056.193085	4806.580000	1786.467773	-67.238869
10056.193085	4806.580000	1785.463867	-32.837406
10056.193085	4806.580000	1784.459961	-122.223953
10056.193085	4806.580000	1783.455078	-85.489243
10056.193085	4806.580000	1782.450195	-51.168537
10056.193085	4806.580000	1781.445313	56.852928
10056.193085	4806.580000	1780.440430	-82.508331
10056.193085	4806.580000	1779.435547	-102.955902
10056.193085	4806.580000	1778.429688	19.212355
10056.193085	4806.580000	1777.424805	27.232817
10056.193085	4806.580000	1776.418945	73.247055
10056.193085	4806.580000	1775.413086	2.807845
10056.193085	4806.580000	1774.406250	-24.871490
10056.193085	4806.580000	1773.400391	51.938732
10056.193085	4806.580000	1772.393555	-96.879326
10056.193085	4806.580000	1771.386719	105.694481
10056.193085	4806.580000	1770.379883	66.065948
10056.193085	4806.580000	1769.373047	52.536392
10056.193085	4806.580000	1768.365234	-13.210263
10056.193085	4806.580000	1767.358398	79.989494
10056.193085	4806.580000	1766.350586	-28.470661
10056.193085	4806.580000	1765.342773	59.910004
10056.193085	4806.580000	1764.334961	39.175980
10056.193085	4806.580000	1763.326172	-7.647583
10056.193085	4806.580000	1762.318359	-18.921385
10056.193085	4806.580000	1761.309570	36.132343
10056.193085	4806.580000	1760.300781	98.252243
10056.193085	4806.580000	1759.291016	56.105968
10056.193085	4806.580000	1758.282227	68.426254
10056.193085	4806.580000	1757.272461	-23.460945
10056.193085	4806.580000	1756.262695	81.150391
10056.193085	4806.580000	1755.252930	-34.412525
10056.193085	4806.580000	1754.243164	-0.870318
10056.193085	4806.580000	1753.233398	20.809801
10056.193085	4806.580000	1752.222656	-47.429218
10056.193085	4806.580000	1751.211914	40.429272
10056.193085	4806.580000	1750.201172	21.829205
10056.193085	4806.580000	1749.190430	-72.435387
10056.193085	4806.580000	1748.179688	-152.501633
10056.193085	4806.580000	1747.167969	-78.950562
10056.193085	4806.580000	1746.156250	-104.683426
10056.193085	4806.580000	1745.144531	-97.353424
10056.193085	4806.580000	1744.132813	49.304173
10056.193085	4806.580000	1743.121094	4.612715
10056.193085	4806.580000	1742.108398	-2.308736
10056.193085	4806.580000	1741.095703	73.371124
10056.193085	4806.580000	1740.083008	5.040089
10056.193085	4806.580000	1739.070313	-11.373014
10056.193085	4806.580000	1738.057617	94.878014
10056.193085	4806.580000	1737.043945	153.892639
10056.193085	4806.580000	1736.030273	-44.183784
10056.193085	4806.580000	1735.016602	69.027283
10056.193085	4806.580000	1734.002930	33.663166
10056.193085	4806.580000	1732.989258	31.291370
10056.193085	4806.580000	1731.974609	-34.725533
10056.193085	4806.580000	1730.959961	-93.667374
10056.193085	4806.580000	1729.945313	-13.626327
10056.193085	4806.580000	1728.930664	-82.005569
10056.193085	4806.580000	1727.916016	16.804399
10056.193085	4806.580000	1726.900391	-2.154708
10056.193085	4806.580000	1725.885742	0.063370
10056.193085	4806.580000	1724.870117	42.266033
10056.193085	4806.580000	1723.853516	-87.326408
10056.193085	4806.580000	1722.837891	11.300269
10056.193085	4806.580000	1721.822266	-52.412334
10056.193085	4806.580000	1720.805664	3.805933
10056.193085	4806.580000	1719.789063	36.475220
10056.193085	4806.580000	1718.772461	97.323219
10056.193085	4806.580000	1717.754883	-137.991776
10056.193085	4806.580000	1716.738281	-65.417747
10056.193085	4806.580000	1715.720703	-140.894608
10056.193085	4806.580000	1714.703125	6.778526
10056.193085	4806.580000	1713.685547	-125.075417
10056.193085	4806.580000	1712.667969	-71.409393
10056.193085	4806.580000	1711.649414	162.970947
10056.193085	4806.580000	1710.630859	202.444290
10056.193085	4806.580000	1709.612305	-81.936928
10056.193085	4806.580000	1708.593750	-136.306335
10056.193085	4806.580000	1707.575195	90.809860
10056.193085	4806.580000	1706.555664	59.847202
10056.193085	4806.580000	1705.536133	66.398308
10056.193085	4806.580000	1704.516602	21.357893
10056.193085	4806.580000	1703.497070	27.885315
10056.193085	4806.580000	1702.477539	-21.845415
10056.193085	4806.580000	1701.457031	-36.430565
10056.193085	4806.580000	1700.437500	9.885432
10056.193085	4806.580000	1699.416992	-11.753225
10056.193085	4806.580000	1698.395508	-2.959666
10056.193085	4806.580000	1697.375000	160.337189
10056.193085	4806.580000	1696.354492	12.244653
10056.193085	4806.580000	1695.333008	126.301193
10056.193085	4806.580000	1694.311523	83.534157
10056.193085	4806.580000	1693.290039	94.576546
10056.193085	4806.580000	1692.267578	-16.024912
10056.193085	4806.580000	1691.246094	-54.099892
10056.193085	4806.580000	1690.223633	207.090363
10056.193085	4806.580000	1689.201172	-1.682125
10056.193085	4806.580000	1688.178711	172.900742
10056.193085	4806.580000	1687.155273	29.615604
10056.193085	4806.580000	1686.132813	26.550877
10056.193085	4806.580000	1685.109375	-165.723724
10056.193085	4806.580000	1684.085938	-108.056717
10056.193085	4806.580000	1683.062500	204.078003
10056.193085	4806.580000	1682.039063	266.300262
10056.193085	4806.580000	1681.014648	139.433090
10056.193085	4806.580000	1679.990234	12.605065
10056.193085	4806.580000	1678.965820	81.793930
10056.193085	4806.580000	1677.941406	78.635170
10056.193085	4806.580000	1676.916992	19.497175
10056.193085	4806.580000	1675.891602	74.622849
10056.193085	4806.580000	1674.866211	31.805847
10056.193085	4806.580000	1673.840820	65.913101
10056.193085	4806.580000	1672.815430	39.410172
10056.193085	4806.580000	1671.790039	148.044357
10056.193085	4806.580000	1670.763672	79.584915
10056.193085	4806.580000	1669.737305	8.815284
10056.193085	4806.580000	1668.710938	-43.305313
10056.193085	4806.580000	1667.684570	190.946014
10056.193085	4806.580000	1666.658203	50.343906
10056.193085	4806.580000	1665.630859	91.309471
10056.193085	4806.580000	1664.603516	13.587601
10056.193085	4806.580000	1663.576172	105.710770
10056.193085	4806.580000	1662.548828	51.262215
10056.193085	4806.580000	1661.520508	-63.635796
10056.193085	4806.580000	1660.493164	149.331055
10056.193085	4806.580000	1659.464844	90.236122
10056.193085	4806.580000	1658.436523	-24.619005
10056.193085	4806.580000	1657.408203	97.575974
10056.193085	4806.580000	1656.378906	-17.249075
10056.193085	4806.580000	1655.350586	186.184555
10056.193085	4806.580000	1654.321289	141.046402
10056.193085	4806.580000	1653.291992	-85.180786
10056.193085	4806.580000	1652.261719	2.059318
10056.193085	4806.580000	1651.232422	103.191925
10056.193085	4806.580000	1650.202148	215.880707
10056.193085	4806.580000	1649.171875	231.081558
10056.193085	4806.580000	1648.141602	95.500313
10056.193085	4806.580000	1647.111328	136.224625
10056.193085	4806.580000	1646.080078	292.861115
10056.193085	4806.580000	1645.049805	182.841827
10056.193085	4806.580000	1644.018555	265.236237
10056.193085	4806.580000	1642.987305	243.316620
10056.193085	4806.580000	1641.955078	200.549011
10056.193085	4806.580000	1640.923828	266.674042
10056.193085	4806.580000	1639.891602	91.905685
10056.193085	4806.580000	1638.859375	269.167633
10056.193085	4806.580000	1637.827148	328.291199
10056.193085	4806.580000	1636.794922	195.276184
10056.193085	4806.580000	1635.761719	279.843933
10056.193085	4806.580000	1634.729492	186.225357
10056.193085	4806.580000	1633.696289	238.378098
10056.193085	4806.580000	1632.662109	230.373718
10056.193085	4806.580000	1631.628906	178.442596
10056.193085	4806.580000	1630.594727	114.969635
10056.193085	4806.580000	1629.561523	305.793610
10056.193085	4806.580000	1628.527344	263.125122
10056.193085	4806.580000	1627.493164	331.384888
10056.193085	4806.580000	1626.458008	355.724579
10056.193085	4806.580000	1625.423828	269.195740
10056.193085	4806.580000	1624.388672	445.955841
10056.193085	4806.580000	1623.353516	467.960754
10056.193085	4806.580000	1622.318359	363.001251
10056.193085	4806.580000	1621.282227	271.930664
10056.193085	4806.580000	1620.247070	464.722382
10056.193085	4806.580000	1619.210938	442.887482
10056.193085	4806.580000	1618.174805	344.949615
10056.193085	4806.580000	1617.137695	512.255310
10056.193085	4806.580000	1616.101563	405.130463
10056.193085	4806.580000	1615.064453	512.435303
10056.193085	4806.580000	1614.027344	333.912689
10056.193085	4806.580000	1612.990234	593.288574
10056.193085	4806.580000	1611.953125	525.419067
10056.193085	4806.580000	1610.916016	554.327515
10056.193085	4806.580000	1609.877930	684.560120
10056.193085	4806.580000	1608.839844	835.471069
10056.193085	4806.580000	1607.801758	767.634460
10056.193085	4806.580000	1606.763672	610.069031
10056.193085	4806.580000	1605.724609	694.193115
10056.193085	4806.580000	1604.685547	571.228210
10056.193085	4806.580000	1603.646484	731.255066
10056.193085	4806.580000	1602.607422	700.342834
10056.193085	4806.580000	1601.568359	503.895630
10056.193085	4806.580000	1600.528320	514.436279
10056.193085	4806.580000	1599.489258	589.344666
10056.193085	4806.580000	1598.449219	845.776672
10056.193085	4806.580000	1597.408203	543.799500
10056.193085	4806.580000	1596.368164	533.692810
10056.193085	4806.580000	1595.327148	576.421692
10056.193085	4806.580000	1594.287109	497.448334
10056.193085	4806.580000	1593.246094	503.458557
10056.193085	4806.580000	1592.204102	502.589417
10056.193085	4806.580000	1591.163086	588.943115
10056.193085	4806.580000	1590.121094	514.659729
10056.193085	4806.580000	1589.079102	596.411133
10056.193085	4806.580000	1588.037109	586.402100
10056.193085	4806.580000	1586.995117	491.565613
10056.193085	4806.580000	1585.953125	417.414093
10056.193085	4806.580000	1584.910156	496.880341
10056.193085	4806.580000	1583.867188	427.365143
10056.193085	4806.580000	1582.824219	465.584106
10056.193085	4806.580000	1581.781250	441.950104
10056.193085	4806.580000	1580.737305	521.405762
10056.193085	4806.580000	1579.693359	497.797577
