#X		#Y		#Wave		#Intensity
10309.254255	5519.045000	1999.946289	183.897614
10309.254255	5519.045000	1998.981445	188.087204
10309.254255	5519.045000	1998.017578	201.560410
10309.254255	5519.045000	1997.052734	140.930359
10309.254255	5519.045000	1996.088867	144.995789
10309.254255	5519.045000	1995.124023	188.928665
10309.254255	5519.045000	1994.159180	129.058075
10309.254255	5519.045000	1993.193359	34.765263
10309.254255	5519.045000	1992.228516	-19.647743
10309.254255	5519.045000	1991.262695	5.383466
10309.254255	5519.045000	1990.296875	134.565796
10309.254255	5519.045000	1989.331055	-23.125057
10309.254255	5519.045000	1988.365234	118.797928
10309.254255	5519.045000	1987.398438	-60.695251
10309.254255	5519.045000	1986.432617	-9.927682
10309.254255	5519.045000	1985.465820	-23.281576
10309.254255	5519.045000	1984.499023	-38.917976
10309.254255	5519.045000	1983.532227	-17.292782
10309.254255	5519.045000	1982.565430	19.327633
10309.254255	5519.045000	1981.597656	-136.617828
10309.254255	5519.045000	1980.629883	75.737175
10309.254255	5519.045000	1979.662109	-27.964281
10309.254255	5519.045000	1978.694336	4.348166
10309.254255	5519.045000	1977.726563	91.119492
10309.254255	5519.045000	1976.758789	5.216117
10309.254255	5519.045000	1975.790039	5.867917
10309.254255	5519.045000	1974.821289	-8.143268
10309.254255	5519.045000	1973.852539	22.397362
10309.254255	5519.045000	1972.883789	82.661217
10309.254255	5519.045000	1971.915039	86.311493
10309.254255	5519.045000	1970.945313	-8.543470
10309.254255	5519.045000	1969.975586	-90.913208
10309.254255	5519.045000	1969.005859	-74.539101
10309.254255	5519.045000	1968.036133	-50.660522
10309.254255	5519.045000	1967.066406	-56.244316
10309.254255	5519.045000	1966.096680	51.602608
10309.254255	5519.045000	1965.125977	36.365185
10309.254255	5519.045000	1964.155273	-40.325336
10309.254255	5519.045000	1963.184570	-50.410637
10309.254255	5519.045000	1962.213867	-77.625793
10309.254255	5519.045000	1961.242188	-18.597540
10309.254255	5519.045000	1960.271484	3.591851
10309.254255	5519.045000	1959.299805	23.400211
10309.254255	5519.045000	1958.328125	38.367725
10309.254255	5519.045000	1957.356445	70.627777
10309.254255	5519.045000	1956.384766	43.944183
10309.254255	5519.045000	1955.412109	9.972327
10309.254255	5519.045000	1954.439453	-77.986992
10309.254255	5519.045000	1953.467773	38.132397
10309.254255	5519.045000	1952.495117	-98.797035
10309.254255	5519.045000	1951.521484	-117.692635
10309.254255	5519.045000	1950.548828	-87.392616
10309.254255	5519.045000	1949.575195	149.233368
10309.254255	5519.045000	1948.601563	91.208176
10309.254255	5519.045000	1947.627930	-64.927055
10309.254255	5519.045000	1946.654297	-0.062280
10309.254255	5519.045000	1945.680664	-33.320313
10309.254255	5519.045000	1944.706055	-22.354084
10309.254255	5519.045000	1943.732422	-40.776707
10309.254255	5519.045000	1942.757813	-0.285794
10309.254255	5519.045000	1941.783203	50.043774
10309.254255	5519.045000	1940.807617	-98.177383
10309.254255	5519.045000	1939.833008	60.085365
10309.254255	5519.045000	1938.857422	81.093933
10309.254255	5519.045000	1937.881836	121.733887
10309.254255	5519.045000	1936.906250	108.501938
10309.254255	5519.045000	1935.930664	141.845062
10309.254255	5519.045000	1934.955078	28.280577
10309.254255	5519.045000	1933.978516	-6.863067
10309.254255	5519.045000	1933.001953	26.577534
10309.254255	5519.045000	1932.025391	153.036804
10309.254255	5519.045000	1931.048828	71.481926
10309.254255	5519.045000	1930.072266	117.201904
10309.254255	5519.045000	1929.094727	118.899040
10309.254255	5519.045000	1928.118164	-38.347416
10309.254255	5519.045000	1927.140625	-122.159096
10309.254255	5519.045000	1926.163086	28.771511
10309.254255	5519.045000	1925.184570	67.228958
10309.254255	5519.045000	1924.207031	27.486818
10309.254255	5519.045000	1923.228516	43.972561
10309.254255	5519.045000	1922.250000	58.023056
10309.254255	5519.045000	1921.271484	81.851433
10309.254255	5519.045000	1920.292969	5.561984
10309.254255	5519.045000	1919.314453	17.206278
10309.254255	5519.045000	1918.334961	-149.341461
10309.254255	5519.045000	1917.355469	62.475952
10309.254255	5519.045000	1916.375977	-6.395793
10309.254255	5519.045000	1915.396484	5.274693
10309.254255	5519.045000	1914.416992	53.534744
10309.254255	5519.045000	1913.436523	133.485809
10309.254255	5519.045000	1912.457031	25.658903
10309.254255	5519.045000	1911.476563	154.349258
10309.254255	5519.045000	1910.496094	-53.371147
10309.254255	5519.045000	1909.515625	48.482151
10309.254255	5519.045000	1908.534180	-49.496571
10309.254255	5519.045000	1907.552734	47.444885
10309.254255	5519.045000	1906.572266	56.666664
10309.254255	5519.045000	1905.590820	-77.790710
10309.254255	5519.045000	1904.608398	-10.121345
10309.254255	5519.045000	1903.626953	50.216225
10309.254255	5519.045000	1902.644531	-3.861441
10309.254255	5519.045000	1901.663086	-70.090637
10309.254255	5519.045000	1900.680664	21.835838
10309.254255	5519.045000	1899.698242	33.451649
10309.254255	5519.045000	1898.714844	83.967461
10309.254255	5519.045000	1897.732422	-16.296747
10309.254255	5519.045000	1896.749023	31.762173
10309.254255	5519.045000	1895.765625	43.335201
10309.254255	5519.045000	1894.782227	33.023369
10309.254255	5519.045000	1893.798828	-45.326191
10309.254255	5519.045000	1892.814453	-164.953430
10309.254255	5519.045000	1891.831055	-92.673889
10309.254255	5519.045000	1890.846680	-54.428852
10309.254255	5519.045000	1889.862305	59.053883
10309.254255	5519.045000	1888.877930	63.247517
10309.254255	5519.045000	1887.892578	-22.370100
10309.254255	5519.045000	1886.908203	-88.557167
10309.254255	5519.045000	1885.922852	66.037949
10309.254255	5519.045000	1884.937500	36.215424
10309.254255	5519.045000	1883.952148	1.539369
10309.254255	5519.045000	1882.965820	-64.658844
10309.254255	5519.045000	1881.980469	-2.363284
10309.254255	5519.045000	1880.994141	45.351357
10309.254255	5519.045000	1880.007813	0.945555
10309.254255	5519.045000	1879.021484	-87.070709
10309.254255	5519.045000	1878.035156	-68.484329
10309.254255	5519.045000	1877.047852	3.362230
10309.254255	5519.045000	1876.061523	-38.646168
10309.254255	5519.045000	1875.074219	146.923965
10309.254255	5519.045000	1874.086914	138.758865
10309.254255	5519.045000	1873.098633	-50.932198
10309.254255	5519.045000	1872.111328	83.669907
10309.254255	5519.045000	1871.123047	82.726112
10309.254255	5519.045000	1870.135742	-27.081079
10309.254255	5519.045000	1869.147461	22.745157
10309.254255	5519.045000	1868.158203	79.787628
10309.254255	5519.045000	1867.169922	102.946747
10309.254255	5519.045000	1866.180664	72.904312
10309.254255	5519.045000	1865.192383	166.097458
10309.254255	5519.045000	1864.203125	-16.195383
10309.254255	5519.045000	1863.213867	-17.267649
10309.254255	5519.045000	1862.223633	-44.925774
10309.254255	5519.045000	1861.234375	-103.983429
10309.254255	5519.045000	1860.244141	-97.853706
10309.254255	5519.045000	1859.253906	45.841465
10309.254255	5519.045000	1858.263672	83.275856
10309.254255	5519.045000	1857.273438	-50.639454
10309.254255	5519.045000	1856.282227	-51.839870
10309.254255	5519.045000	1855.291992	53.068726
10309.254255	5519.045000	1854.300781	-124.232208
10309.254255	5519.045000	1853.309570	-84.488464
10309.254255	5519.045000	1852.317383	-54.422615
10309.254255	5519.045000	1851.326172	11.765887
10309.254255	5519.045000	1850.333984	75.499107
10309.254255	5519.045000	1849.342773	-29.459923
10309.254255	5519.045000	1848.350586	106.482193
10309.254255	5519.045000	1847.357422	44.866905
10309.254255	5519.045000	1846.365234	98.835815
10309.254255	5519.045000	1845.372070	-18.166233
10309.254255	5519.045000	1844.379883	16.498531
10309.254255	5519.045000	1843.386719	70.382309
10309.254255	5519.045000	1842.393555	47.230785
10309.254255	5519.045000	1841.399414	48.123978
10309.254255	5519.045000	1840.406250	53.808220
10309.254255	5519.045000	1839.412109	59.470356
10309.254255	5519.045000	1838.417969	21.833694
10309.254255	5519.045000	1837.423828	46.691757
10309.254255	5519.045000	1836.429688	-22.211735
10309.254255	5519.045000	1835.434570	89.111351
10309.254255	5519.045000	1834.440430	10.577531
10309.254255	5519.045000	1833.445313	18.526266
10309.254255	5519.045000	1832.450195	-23.980129
10309.254255	5519.045000	1831.454102	-23.269983
10309.254255	5519.045000	1830.458984	73.448364
10309.254255	5519.045000	1829.462891	50.099712
10309.254255	5519.045000	1828.466797	113.132187
10309.254255	5519.045000	1827.470703	29.764147
10309.254255	5519.045000	1826.474609	-58.389069
10309.254255	5519.045000	1825.478516	-81.770233
10309.254255	5519.045000	1824.481445	50.705307
10309.254255	5519.045000	1823.484375	56.044380
10309.254255	5519.045000	1822.487305	1.437039
10309.254255	5519.045000	1821.490234	-5.236237
10309.254255	5519.045000	1820.493164	31.205326
10309.254255	5519.045000	1819.495117	93.967400
10309.254255	5519.045000	1818.498047	92.016899
10309.254255	5519.045000	1817.500000	68.495010
10309.254255	5519.045000	1816.500977	-48.416065
10309.254255	5519.045000	1815.502930	131.543167
10309.254255	5519.045000	1814.504883	40.958248
10309.254255	5519.045000	1813.505859	132.255936
10309.254255	5519.045000	1812.506836	79.949600
10309.254255	5519.045000	1811.507813	-34.548504
10309.254255	5519.045000	1810.508789	-24.655260
10309.254255	5519.045000	1809.508789	121.513077
10309.254255	5519.045000	1808.508789	66.788315
10309.254255	5519.045000	1807.508789	71.824394
10309.254255	5519.045000	1806.508789	88.791351
10309.254255	5519.045000	1805.508789	115.292351
10309.254255	5519.045000	1804.508789	77.265991
10309.254255	5519.045000	1803.507813	82.229225
10309.254255	5519.045000	1802.506836	13.145787
10309.254255	5519.045000	1801.505859	-10.563776
10309.254255	5519.045000	1800.504883	101.785233
10309.254255	5519.045000	1799.502930	111.447975
10309.254255	5519.045000	1798.501953	25.643980
10309.254255	5519.045000	1797.500000	-103.087753
10309.254255	5519.045000	1796.498047	-40.961605
10309.254255	5519.045000	1795.496094	99.825768
10309.254255	5519.045000	1794.493164	107.016289
10309.254255	5519.045000	1793.491211	154.717789
10309.254255	5519.045000	1792.488281	9.321187
10309.254255	5519.045000	1791.485352	56.991566
10309.254255	5519.045000	1790.482422	87.951210
10309.254255	5519.045000	1789.478516	21.214428
10309.254255	5519.045000	1788.475586	135.499069
10309.254255	5519.045000	1787.471680	-28.881258
10309.254255	5519.045000	1786.467773	68.673660
10309.254255	5519.045000	1785.463867	-26.629995
10309.254255	5519.045000	1784.459961	-7.677368
10309.254255	5519.045000	1783.455078	-29.197882
10309.254255	5519.045000	1782.450195	77.741226
10309.254255	5519.045000	1781.445313	25.264107
10309.254255	5519.045000	1780.440430	-48.609596
10309.254255	5519.045000	1779.435547	-82.049202
10309.254255	5519.045000	1778.429688	60.420387
10309.254255	5519.045000	1777.424805	-70.499809
10309.254255	5519.045000	1776.418945	-30.293314
10309.254255	5519.045000	1775.413086	-11.497505
10309.254255	5519.045000	1774.406250	64.285522
10309.254255	5519.045000	1773.400391	18.906773
10309.254255	5519.045000	1772.393555	44.765438
10309.254255	5519.045000	1771.386719	37.365204
10309.254255	5519.045000	1770.379883	25.207647
10309.254255	5519.045000	1769.373047	48.639065
10309.254255	5519.045000	1768.365234	15.103173
10309.254255	5519.045000	1767.358398	78.831001
10309.254255	5519.045000	1766.350586	-37.734947
10309.254255	5519.045000	1765.342773	-52.301376
10309.254255	5519.045000	1764.334961	-52.649433
10309.254255	5519.045000	1763.326172	-83.826180
10309.254255	5519.045000	1762.318359	-88.932030
10309.254255	5519.045000	1761.309570	-169.873718
10309.254255	5519.045000	1760.300781	-42.318836
10309.254255	5519.045000	1759.291016	-42.730995
10309.254255	5519.045000	1758.282227	61.046799
10309.254255	5519.045000	1757.272461	17.972952
10309.254255	5519.045000	1756.262695	-96.114220
10309.254255	5519.045000	1755.252930	-18.456827
10309.254255	5519.045000	1754.243164	-49.692951
10309.254255	5519.045000	1753.233398	-73.830818
10309.254255	5519.045000	1752.222656	-0.987916
10309.254255	5519.045000	1751.211914	-36.974823
10309.254255	5519.045000	1750.201172	-51.678177
10309.254255	5519.045000	1749.190430	-2.555409
10309.254255	5519.045000	1748.179688	-43.281246
10309.254255	5519.045000	1747.167969	-32.013771
10309.254255	5519.045000	1746.156250	-6.584993
10309.254255	5519.045000	1745.144531	-42.595913
10309.254255	5519.045000	1744.132813	-73.880440
10309.254255	5519.045000	1743.121094	60.135727
10309.254255	5519.045000	1742.108398	-27.842272
10309.254255	5519.045000	1741.095703	21.112871
10309.254255	5519.045000	1740.083008	-175.407471
10309.254255	5519.045000	1739.070313	-25.000378
10309.254255	5519.045000	1738.057617	-89.344025
10309.254255	5519.045000	1737.043945	-80.555565
10309.254255	5519.045000	1736.030273	-128.378555
10309.254255	5519.045000	1735.016602	-107.816841
10309.254255	5519.045000	1734.002930	21.165773
10309.254255	5519.045000	1732.989258	-33.749489
10309.254255	5519.045000	1731.974609	-156.993332
10309.254255	5519.045000	1730.959961	-143.550949
10309.254255	5519.045000	1729.945313	-101.856873
10309.254255	5519.045000	1728.930664	-36.637112
10309.254255	5519.045000	1727.916016	-79.766113
10309.254255	5519.045000	1726.900391	-24.013981
10309.254255	5519.045000	1725.885742	74.077614
10309.254255	5519.045000	1724.870117	-79.683937
10309.254255	5519.045000	1723.853516	48.944569
10309.254255	5519.045000	1722.837891	-48.314346
10309.254255	5519.045000	1721.822266	-4.428065
10309.254255	5519.045000	1720.805664	-35.818100
10309.254255	5519.045000	1719.789063	-53.098980
10309.254255	5519.045000	1718.772461	-133.848297
10309.254255	5519.045000	1717.754883	-92.370399
10309.254255	5519.045000	1716.738281	87.717484
10309.254255	5519.045000	1715.720703	-61.170956
10309.254255	5519.045000	1714.703125	-29.152649
10309.254255	5519.045000	1713.685547	42.766094
10309.254255	5519.045000	1712.667969	-21.530397
10309.254255	5519.045000	1711.649414	19.822420
10309.254255	5519.045000	1710.630859	84.620720
10309.254255	5519.045000	1709.612305	29.710735
10309.254255	5519.045000	1708.593750	-142.491959
10309.254255	5519.045000	1707.575195	-84.763206
10309.254255	5519.045000	1706.555664	-62.245823
10309.254255	5519.045000	1705.536133	44.665482
10309.254255	5519.045000	1704.516602	53.066452
10309.254255	5519.045000	1703.497070	91.925873
10309.254255	5519.045000	1702.477539	-23.903179
10309.254255	5519.045000	1701.457031	52.423737
10309.254255	5519.045000	1700.437500	-68.055115
10309.254255	5519.045000	1699.416992	19.944334
10309.254255	5519.045000	1698.395508	96.191139
10309.254255	5519.045000	1697.375000	22.568825
10309.254255	5519.045000	1696.354492	-53.374569
10309.254255	5519.045000	1695.333008	95.365036
10309.254255	5519.045000	1694.311523	80.253349
10309.254255	5519.045000	1693.290039	79.174690
10309.254255	5519.045000	1692.267578	52.358200
10309.254255	5519.045000	1691.246094	16.191879
10309.254255	5519.045000	1690.223633	52.507515
10309.254255	5519.045000	1689.201172	84.125839
10309.254255	5519.045000	1688.178711	-78.256348
10309.254255	5519.045000	1687.155273	-51.317139
10309.254255	5519.045000	1686.132813	17.658173
10309.254255	5519.045000	1685.109375	65.574554
10309.254255	5519.045000	1684.085938	13.045744
10309.254255	5519.045000	1683.062500	86.612297
10309.254255	5519.045000	1682.039063	36.417797
10309.254255	5519.045000	1681.014648	84.259689
10309.254255	5519.045000	1679.990234	41.067650
10309.254255	5519.045000	1678.965820	49.211823
10309.254255	5519.045000	1677.941406	159.980331
10309.254255	5519.045000	1676.916992	46.810219
10309.254255	5519.045000	1675.891602	-19.692505
10309.254255	5519.045000	1674.866211	-30.226561
10309.254255	5519.045000	1673.840820	-82.719154
10309.254255	5519.045000	1672.815430	-25.671721
10309.254255	5519.045000	1671.790039	49.985607
10309.254255	5519.045000	1670.763672	81.343170
10309.254255	5519.045000	1669.737305	75.417137
10309.254255	5519.045000	1668.710938	-137.757309
10309.254255	5519.045000	1667.684570	96.142639
10309.254255	5519.045000	1666.658203	6.398256
10309.254255	5519.045000	1665.630859	-15.832262
10309.254255	5519.045000	1664.603516	31.742178
10309.254255	5519.045000	1663.576172	56.026890
10309.254255	5519.045000	1662.548828	24.474550
10309.254255	5519.045000	1661.520508	120.822433
10309.254255	5519.045000	1660.493164	159.004303
10309.254255	5519.045000	1659.464844	104.180222
10309.254255	5519.045000	1658.436523	79.583214
10309.254255	5519.045000	1657.408203	106.108330
10309.254255	5519.045000	1656.378906	67.564110
10309.254255	5519.045000	1655.350586	8.126089
10309.254255	5519.045000	1654.321289	101.971840
10309.254255	5519.045000	1653.291992	77.360786
10309.254255	5519.045000	1652.261719	82.927620
10309.254255	5519.045000	1651.232422	2.613540
10309.254255	5519.045000	1650.202148	107.959846
10309.254255	5519.045000	1649.171875	-44.265705
10309.254255	5519.045000	1648.141602	67.994064
10309.254255	5519.045000	1647.111328	-70.263741
10309.254255	5519.045000	1646.080078	162.513535
10309.254255	5519.045000	1645.049805	89.188522
10309.254255	5519.045000	1644.018555	80.781006
10309.254255	5519.045000	1642.987305	204.458664
10309.254255	5519.045000	1641.955078	117.241386
10309.254255	5519.045000	1640.923828	150.509460
10309.254255	5519.045000	1639.891602	183.755768
10309.254255	5519.045000	1638.859375	272.556213
10309.254255	5519.045000	1637.827148	108.969421
10309.254255	5519.045000	1636.794922	213.939331
10309.254255	5519.045000	1635.761719	89.753891
10309.254255	5519.045000	1634.729492	164.595657
10309.254255	5519.045000	1633.696289	250.966278
10309.254255	5519.045000	1632.662109	210.087936
10309.254255	5519.045000	1631.628906	55.913761
10309.254255	5519.045000	1630.594727	158.418015
10309.254255	5519.045000	1629.561523	138.369736
10309.254255	5519.045000	1628.527344	120.631836
10309.254255	5519.045000	1627.493164	188.387222
10309.254255	5519.045000	1626.458008	80.535622
10309.254255	5519.045000	1625.423828	316.870544
10309.254255	5519.045000	1624.388672	273.684082
10309.254255	5519.045000	1623.353516	320.553192
10309.254255	5519.045000	1622.318359	145.795319
10309.254255	5519.045000	1621.282227	250.355103
10309.254255	5519.045000	1620.247070	239.498306
10309.254255	5519.045000	1619.210938	187.111649
10309.254255	5519.045000	1618.174805	160.112000
10309.254255	5519.045000	1617.137695	158.483032
10309.254255	5519.045000	1616.101563	336.694641
10309.254255	5519.045000	1615.064453	364.989960
10309.254255	5519.045000	1614.027344	448.583740
10309.254255	5519.045000	1612.990234	158.839355
10309.254255	5519.045000	1611.953125	251.647003
10309.254255	5519.045000	1610.916016	312.165955
10309.254255	5519.045000	1609.877930	409.501465
10309.254255	5519.045000	1608.839844	377.853149
10309.254255	5519.045000	1607.801758	357.723053
10309.254255	5519.045000	1606.763672	353.708405
10309.254255	5519.045000	1605.724609	398.012665
10309.254255	5519.045000	1604.685547	449.198669
10309.254255	5519.045000	1603.646484	410.648865
10309.254255	5519.045000	1602.607422	358.311096
10309.254255	5519.045000	1601.568359	473.846100
10309.254255	5519.045000	1600.528320	529.556885
10309.254255	5519.045000	1599.489258	458.827545
10309.254255	5519.045000	1598.449219	362.841522
10309.254255	5519.045000	1597.408203	365.683472
10309.254255	5519.045000	1596.368164	230.694443
10309.254255	5519.045000	1595.327148	467.818237
10309.254255	5519.045000	1594.287109	275.449646
10309.254255	5519.045000	1593.246094	301.251709
10309.254255	5519.045000	1592.204102	384.422272
10309.254255	5519.045000	1591.163086	327.571014
10309.254255	5519.045000	1590.121094	277.619751
10309.254255	5519.045000	1589.079102	365.326233
10309.254255	5519.045000	1588.037109	336.024567
10309.254255	5519.045000	1586.995117	403.042511
10309.254255	5519.045000	1585.953125	348.521301
10309.254255	5519.045000	1584.910156	337.568634
10309.254255	5519.045000	1583.867188	351.827515
10309.254255	5519.045000	1582.824219	418.779572
10309.254255	5519.045000	1581.781250	430.722717
10309.254255	5519.045000	1580.737305	298.360382
