#X		#Y		#Wave		#Intensity
9903.063830	4720.585000	1999.946289	13.169321
9903.063830	4720.585000	1998.981445	54.327251
9903.063830	4720.585000	1998.017578	-0.439057
9903.063830	4720.585000	1997.052734	48.767990
9903.063830	4720.585000	1996.088867	-102.866608
9903.063830	4720.585000	1995.124023	3.060941
9903.063830	4720.585000	1994.159180	-19.964756
9903.063830	4720.585000	1993.193359	93.096565
9903.063830	4720.585000	1992.228516	2.978566
9903.063830	4720.585000	1991.262695	-151.578262
9903.063830	4720.585000	1990.296875	-43.849724
9903.063830	4720.585000	1989.331055	-3.082156
9903.063830	4720.585000	1988.365234	7.876520
9903.063830	4720.585000	1987.398438	-40.635574
9903.063830	4720.585000	1986.432617	31.945410
9903.063830	4720.585000	1985.465820	119.238228
9903.063830	4720.585000	1984.499023	-21.035467
9903.063830	4720.585000	1983.532227	-94.617393
9903.063830	4720.585000	1982.565430	12.135452
9903.063830	4720.585000	1981.597656	140.996872
9903.063830	4720.585000	1980.629883	-9.422585
9903.063830	4720.585000	1979.662109	40.185959
9903.063830	4720.585000	1978.694336	200.814957
9903.063830	4720.585000	1977.726563	163.787872
9903.063830	4720.585000	1976.758789	55.109764
9903.063830	4720.585000	1975.790039	-38.796913
9903.063830	4720.585000	1974.821289	-4.430721
9903.063830	4720.585000	1973.852539	61.921288
9903.063830	4720.585000	1972.883789	51.711273
9903.063830	4720.585000	1971.915039	61.164803
9903.063830	4720.585000	1970.945313	112.464523
9903.063830	4720.585000	1969.975586	-77.916260
9903.063830	4720.585000	1969.005859	190.162933
9903.063830	4720.585000	1968.036133	44.069118
9903.063830	4720.585000	1967.066406	-62.609047
9903.063830	4720.585000	1966.096680	72.109627
9903.063830	4720.585000	1965.125977	209.184555
9903.063830	4720.585000	1964.155273	28.486666
9903.063830	4720.585000	1963.184570	103.856422
9903.063830	4720.585000	1962.213867	-54.707542
9903.063830	4720.585000	1961.242188	173.136642
9903.063830	4720.585000	1960.271484	110.484161
9903.063830	4720.585000	1959.299805	131.454605
9903.063830	4720.585000	1958.328125	34.300869
9903.063830	4720.585000	1957.356445	165.853455
9903.063830	4720.585000	1956.384766	179.287537
9903.063830	4720.585000	1955.412109	143.506073
9903.063830	4720.585000	1954.439453	-111.062241
9903.063830	4720.585000	1953.467773	54.654072
9903.063830	4720.585000	1952.495117	178.500305
9903.063830	4720.585000	1951.521484	49.234413
9903.063830	4720.585000	1950.548828	15.768528
9903.063830	4720.585000	1949.575195	-187.162689
9903.063830	4720.585000	1948.601563	39.608799
9903.063830	4720.585000	1947.627930	175.435669
9903.063830	4720.585000	1946.654297	271.909821
9903.063830	4720.585000	1945.680664	164.648468
9903.063830	4720.585000	1944.706055	69.663254
9903.063830	4720.585000	1943.732422	104.688835
9903.063830	4720.585000	1942.757813	75.907455
9903.063830	4720.585000	1941.783203	-31.355555
9903.063830	4720.585000	1940.807617	86.936569
9903.063830	4720.585000	1939.833008	151.235428
9903.063830	4720.585000	1938.857422	92.951477
9903.063830	4720.585000	1937.881836	152.274292
9903.063830	4720.585000	1936.906250	76.816025
9903.063830	4720.585000	1935.930664	45.449524
9903.063830	4720.585000	1934.955078	-37.352764
9903.063830	4720.585000	1933.978516	70.826462
9903.063830	4720.585000	1933.001953	-80.534149
9903.063830	4720.585000	1932.025391	-77.669250
9903.063830	4720.585000	1931.048828	-126.210976
9903.063830	4720.585000	1930.072266	28.308119
9903.063830	4720.585000	1929.094727	53.108837
9903.063830	4720.585000	1928.118164	43.644012
9903.063830	4720.585000	1927.140625	-24.518496
9903.063830	4720.585000	1926.163086	-36.443985
9903.063830	4720.585000	1925.184570	15.169250
9903.063830	4720.585000	1924.207031	147.393234
9903.063830	4720.585000	1923.228516	-133.372345
9903.063830	4720.585000	1922.250000	-52.500420
9903.063830	4720.585000	1921.271484	-13.193640
9903.063830	4720.585000	1920.292969	92.017189
9903.063830	4720.585000	1919.314453	43.361031
9903.063830	4720.585000	1918.334961	-12.614544
9903.063830	4720.585000	1917.355469	26.602274
9903.063830	4720.585000	1916.375977	31.631006
9903.063830	4720.585000	1915.396484	-58.502586
9903.063830	4720.585000	1914.416992	-29.091127
9903.063830	4720.585000	1913.436523	92.971420
9903.063830	4720.585000	1912.457031	161.335281
9903.063830	4720.585000	1911.476563	-16.563229
9903.063830	4720.585000	1910.496094	176.082565
9903.063830	4720.585000	1909.515625	-28.578602
9903.063830	4720.585000	1908.534180	-60.181076
9903.063830	4720.585000	1907.552734	-140.503143
9903.063830	4720.585000	1906.572266	-84.408989
9903.063830	4720.585000	1905.590820	108.021866
9903.063830	4720.585000	1904.608398	76.380402
9903.063830	4720.585000	1903.626953	137.242676
9903.063830	4720.585000	1902.644531	263.785919
9903.063830	4720.585000	1901.663086	13.109577
9903.063830	4720.585000	1900.680664	239.359619
9903.063830	4720.585000	1899.698242	-28.262808
9903.063830	4720.585000	1898.714844	64.135109
9903.063830	4720.585000	1897.732422	71.390167
9903.063830	4720.585000	1896.749023	-166.902603
9903.063830	4720.585000	1895.765625	-1.634825
9903.063830	4720.585000	1894.782227	219.457245
9903.063830	4720.585000	1893.798828	90.582672
9903.063830	4720.585000	1892.814453	-123.274071
9903.063830	4720.585000	1891.831055	-60.176548
9903.063830	4720.585000	1890.846680	-142.810150
9903.063830	4720.585000	1889.862305	-94.315536
9903.063830	4720.585000	1888.877930	121.645180
9903.063830	4720.585000	1887.892578	-92.055885
9903.063830	4720.585000	1886.908203	339.768677
9903.063830	4720.585000	1885.922852	-138.347855
9903.063830	4720.585000	1884.937500	169.602234
9903.063830	4720.585000	1883.952148	259.165802
9903.063830	4720.585000	1882.965820	-63.509708
9903.063830	4720.585000	1881.980469	-121.829666
9903.063830	4720.585000	1880.994141	76.784988
9903.063830	4720.585000	1880.007813	13.597855
9903.063830	4720.585000	1879.021484	59.456516
9903.063830	4720.585000	1878.035156	168.273010
9903.063830	4720.585000	1877.047852	194.692703
9903.063830	4720.585000	1876.061523	51.588619
9903.063830	4720.585000	1875.074219	7.793592
9903.063830	4720.585000	1874.086914	-43.255932
9903.063830	4720.585000	1873.098633	17.031670
9903.063830	4720.585000	1872.111328	99.066551
9903.063830	4720.585000	1871.123047	79.451965
9903.063830	4720.585000	1870.135742	38.068787
9903.063830	4720.585000	1869.147461	52.312225
9903.063830	4720.585000	1868.158203	6.093242
9903.063830	4720.585000	1867.169922	-6.271703
9903.063830	4720.585000	1866.180664	-95.987083
9903.063830	4720.585000	1865.192383	46.309486
9903.063830	4720.585000	1864.203125	-91.722260
9903.063830	4720.585000	1863.213867	-82.359703
9903.063830	4720.585000	1862.223633	79.143898
9903.063830	4720.585000	1861.234375	71.547455
9903.063830	4720.585000	1860.244141	-95.398560
9903.063830	4720.585000	1859.253906	184.260925
9903.063830	4720.585000	1858.263672	-79.198921
9903.063830	4720.585000	1857.273438	31.427795
9903.063830	4720.585000	1856.282227	-29.283173
9903.063830	4720.585000	1855.291992	102.978943
9903.063830	4720.585000	1854.300781	-90.380241
9903.063830	4720.585000	1853.309570	-18.459358
9903.063830	4720.585000	1852.317383	-11.666087
9903.063830	4720.585000	1851.326172	168.647324
9903.063830	4720.585000	1850.333984	172.968430
9903.063830	4720.585000	1849.342773	56.813179
9903.063830	4720.585000	1848.350586	147.845825
9903.063830	4720.585000	1847.357422	96.736053
9903.063830	4720.585000	1846.365234	-50.683720
9903.063830	4720.585000	1845.372070	8.979205
9903.063830	4720.585000	1844.379883	-37.301094
9903.063830	4720.585000	1843.386719	80.065285
9903.063830	4720.585000	1842.393555	21.728848
9903.063830	4720.585000	1841.399414	-29.385237
9903.063830	4720.585000	1840.406250	-70.873100
9903.063830	4720.585000	1839.412109	-42.623474
9903.063830	4720.585000	1838.417969	223.624557
9903.063830	4720.585000	1837.423828	93.123703
9903.063830	4720.585000	1836.429688	135.699890
9903.063830	4720.585000	1835.434570	120.572151
9903.063830	4720.585000	1834.440430	81.410141
9903.063830	4720.585000	1833.445313	-15.403555
9903.063830	4720.585000	1832.450195	-20.938019
9903.063830	4720.585000	1831.454102	-26.487967
9903.063830	4720.585000	1830.458984	-8.045723
9903.063830	4720.585000	1829.462891	190.387390
9903.063830	4720.585000	1828.466797	4.764793
9903.063830	4720.585000	1827.470703	49.529640
9903.063830	4720.585000	1826.474609	29.489311
9903.063830	4720.585000	1825.478516	11.835968
9903.063830	4720.585000	1824.481445	121.261108
9903.063830	4720.585000	1823.484375	-28.304195
9903.063830	4720.585000	1822.487305	-24.420721
9903.063830	4720.585000	1821.490234	125.633972
9903.063830	4720.585000	1820.493164	-19.113976
9903.063830	4720.585000	1819.495117	118.863777
9903.063830	4720.585000	1818.498047	86.709114
9903.063830	4720.585000	1817.500000	123.992561
9903.063830	4720.585000	1816.500977	130.114258
9903.063830	4720.585000	1815.502930	38.063847
9903.063830	4720.585000	1814.504883	82.454605
9903.063830	4720.585000	1813.505859	102.874313
9903.063830	4720.585000	1812.506836	-5.931274
9903.063830	4720.585000	1811.507813	93.394073
9903.063830	4720.585000	1810.508789	-8.237734
9903.063830	4720.585000	1809.508789	-16.599319
9903.063830	4720.585000	1808.508789	135.199661
9903.063830	4720.585000	1807.508789	112.428566
9903.063830	4720.585000	1806.508789	37.066681
9903.063830	4720.585000	1805.508789	150.470261
9903.063830	4720.585000	1804.508789	151.529755
9903.063830	4720.585000	1803.507813	176.447021
9903.063830	4720.585000	1802.506836	74.766869
9903.063830	4720.585000	1801.505859	147.394379
9903.063830	4720.585000	1800.504883	117.323524
9903.063830	4720.585000	1799.502930	49.052002
9903.063830	4720.585000	1798.501953	114.411034
9903.063830	4720.585000	1797.500000	148.704758
9903.063830	4720.585000	1796.498047	35.071869
9903.063830	4720.585000	1795.496094	55.008293
9903.063830	4720.585000	1794.493164	-63.385822
9903.063830	4720.585000	1793.491211	-29.184290
9903.063830	4720.585000	1792.488281	59.797680
9903.063830	4720.585000	1791.485352	-51.456367
9903.063830	4720.585000	1790.482422	16.000696
9903.063830	4720.585000	1789.478516	35.761089
9903.063830	4720.585000	1788.475586	148.377243
9903.063830	4720.585000	1787.471680	89.471214
9903.063830	4720.585000	1786.467773	147.221039
9903.063830	4720.585000	1785.463867	152.555283
9903.063830	4720.585000	1784.459961	131.681854
9903.063830	4720.585000	1783.455078	48.921368
9903.063830	4720.585000	1782.450195	256.402130
9903.063830	4720.585000	1781.445313	52.290085
9903.063830	4720.585000	1780.440430	-6.707871
9903.063830	4720.585000	1779.435547	88.835907
9903.063830	4720.585000	1778.429688	22.663813
9903.063830	4720.585000	1777.424805	4.027086
9903.063830	4720.585000	1776.418945	127.944763
9903.063830	4720.585000	1775.413086	130.620560
9903.063830	4720.585000	1774.406250	214.027267
9903.063830	4720.585000	1773.400391	-23.238947
9903.063830	4720.585000	1772.393555	-32.495159
9903.063830	4720.585000	1771.386719	3.330637
9903.063830	4720.585000	1770.379883	29.620214
9903.063830	4720.585000	1769.373047	-100.754417
9903.063830	4720.585000	1768.365234	27.511423
9903.063830	4720.585000	1767.358398	-121.848045
9903.063830	4720.585000	1766.350586	248.237488
9903.063830	4720.585000	1765.342773	110.689850
9903.063830	4720.585000	1764.334961	39.549988
9903.063830	4720.585000	1763.326172	27.667408
9903.063830	4720.585000	1762.318359	198.250244
9903.063830	4720.585000	1761.309570	98.612724
9903.063830	4720.585000	1760.300781	110.329132
9903.063830	4720.585000	1759.291016	-22.475731
9903.063830	4720.585000	1758.282227	95.769775
9903.063830	4720.585000	1757.272461	126.333794
9903.063830	4720.585000	1756.262695	-120.113564
9903.063830	4720.585000	1755.252930	-68.277367
9903.063830	4720.585000	1754.243164	26.105095
9903.063830	4720.585000	1753.233398	99.129532
9903.063830	4720.585000	1752.222656	13.608097
9903.063830	4720.585000	1751.211914	-180.700073
9903.063830	4720.585000	1750.201172	45.928669
9903.063830	4720.585000	1749.190430	38.395744
9903.063830	4720.585000	1748.179688	30.836927
9903.063830	4720.585000	1747.167969	-9.837115
9903.063830	4720.585000	1746.156250	51.075294
9903.063830	4720.585000	1745.144531	-114.845711
9903.063830	4720.585000	1744.132813	35.756371
9903.063830	4720.585000	1743.121094	65.840584
9903.063830	4720.585000	1742.108398	3.803822
9903.063830	4720.585000	1741.095703	-171.542709
9903.063830	4720.585000	1740.083008	9.518834
9903.063830	4720.585000	1739.070313	-85.591537
9903.063830	4720.585000	1738.057617	-43.863003
9903.063830	4720.585000	1737.043945	21.404942
9903.063830	4720.585000	1736.030273	93.694550
9903.063830	4720.585000	1735.016602	73.973686
9903.063830	4720.585000	1734.002930	-157.929413
9903.063830	4720.585000	1732.989258	83.965843
9903.063830	4720.585000	1731.974609	134.864716
9903.063830	4720.585000	1730.959961	-35.748447
9903.063830	4720.585000	1729.945313	48.075718
9903.063830	4720.585000	1728.930664	-47.148022
9903.063830	4720.585000	1727.916016	57.783588
9903.063830	4720.585000	1726.900391	42.578663
9903.063830	4720.585000	1725.885742	-189.188400
9903.063830	4720.585000	1724.870117	82.709023
9903.063830	4720.585000	1723.853516	69.775887
9903.063830	4720.585000	1722.837891	-37.271641
9903.063830	4720.585000	1721.822266	116.762802
9903.063830	4720.585000	1720.805664	-58.502632
9903.063830	4720.585000	1719.789063	3.728251
9903.063830	4720.585000	1718.772461	-155.047302
9903.063830	4720.585000	1717.754883	-99.928970
9903.063830	4720.585000	1716.738281	-84.797943
9903.063830	4720.585000	1715.720703	-46.209232
9903.063830	4720.585000	1714.703125	-71.079391
9903.063830	4720.585000	1713.685547	-103.010780
9903.063830	4720.585000	1712.667969	24.702875
9903.063830	4720.585000	1711.649414	95.998886
9903.063830	4720.585000	1710.630859	28.769398
9903.063830	4720.585000	1709.612305	-40.804714
9903.063830	4720.585000	1708.593750	-77.531822
9903.063830	4720.585000	1707.575195	-29.825777
9903.063830	4720.585000	1706.555664	-87.700508
9903.063830	4720.585000	1705.536133	-54.130928
9903.063830	4720.585000	1704.516602	9.878311
9903.063830	4720.585000	1703.497070	-10.539743
9903.063830	4720.585000	1702.477539	60.419838
9903.063830	4720.585000	1701.457031	28.234251
9903.063830	4720.585000	1700.437500	71.003525
9903.063830	4720.585000	1699.416992	113.728683
9903.063830	4720.585000	1698.395508	90.846443
9903.063830	4720.585000	1697.375000	-147.431717
9903.063830	4720.585000	1696.354492	77.820625
9903.063830	4720.585000	1695.333008	54.892075
9903.063830	4720.585000	1694.311523	-40.582634
9903.063830	4720.585000	1693.290039	-2.697953
9903.063830	4720.585000	1692.267578	135.720444
9903.063830	4720.585000	1691.246094	-62.669415
9903.063830	4720.585000	1690.223633	82.680054
9903.063830	4720.585000	1689.201172	-47.878536
9903.063830	4720.585000	1688.178711	22.585762
9903.063830	4720.585000	1687.155273	-68.231293
9903.063830	4720.585000	1686.132813	-142.674438
9903.063830	4720.585000	1685.109375	-30.251869
9903.063830	4720.585000	1684.085938	-95.374573
9903.063830	4720.585000	1683.062500	19.294680
9903.063830	4720.585000	1682.039063	-22.504539
9903.063830	4720.585000	1681.014648	-26.967171
9903.063830	4720.585000	1679.990234	-5.775595
9903.063830	4720.585000	1678.965820	227.699417
9903.063830	4720.585000	1677.941406	111.174988
9903.063830	4720.585000	1676.916992	1.675868
9903.063830	4720.585000	1675.891602	69.409401
9903.063830	4720.585000	1674.866211	55.505795
9903.063830	4720.585000	1673.840820	92.870667
9903.063830	4720.585000	1672.815430	76.606888
9903.063830	4720.585000	1671.790039	34.706020
9903.063830	4720.585000	1670.763672	97.628304
9903.063830	4720.585000	1669.737305	-44.442276
9903.063830	4720.585000	1668.710938	16.114756
9903.063830	4720.585000	1667.684570	39.384716
9903.063830	4720.585000	1666.658203	-28.146687
9903.063830	4720.585000	1665.630859	127.744423
9903.063830	4720.585000	1664.603516	13.656166
9903.063830	4720.585000	1663.576172	290.423859
9903.063830	4720.585000	1662.548828	285.640686
9903.063830	4720.585000	1661.520508	213.407394
9903.063830	4720.585000	1660.493164	236.518631
9903.063830	4720.585000	1659.464844	185.221527
9903.063830	4720.585000	1658.436523	240.841797
9903.063830	4720.585000	1657.408203	50.124962
9903.063830	4720.585000	1656.378906	342.690338
9903.063830	4720.585000	1655.350586	289.051392
9903.063830	4720.585000	1654.321289	154.138779
9903.063830	4720.585000	1653.291992	205.017532
9903.063830	4720.585000	1652.261719	84.080421
9903.063830	4720.585000	1651.232422	341.501099
9903.063830	4720.585000	1650.202148	155.596909
9903.063830	4720.585000	1649.171875	245.842117
9903.063830	4720.585000	1648.141602	143.521286
9903.063830	4720.585000	1647.111328	463.316467
9903.063830	4720.585000	1646.080078	569.658447
9903.063830	4720.585000	1645.049805	323.585297
9903.063830	4720.585000	1644.018555	494.800995
9903.063830	4720.585000	1642.987305	348.470245
9903.063830	4720.585000	1641.955078	477.897888
9903.063830	4720.585000	1640.923828	294.556549
9903.063830	4720.585000	1639.891602	407.725433
9903.063830	4720.585000	1638.859375	291.608276
9903.063830	4720.585000	1637.827148	476.497559
9903.063830	4720.585000	1636.794922	404.386810
9903.063830	4720.585000	1635.761719	295.270355
9903.063830	4720.585000	1634.729492	366.673523
9903.063830	4720.585000	1633.696289	329.316956
9903.063830	4720.585000	1632.662109	365.981354
9903.063830	4720.585000	1631.628906	365.639282
9903.063830	4720.585000	1630.594727	367.604218
9903.063830	4720.585000	1629.561523	496.707031
9903.063830	4720.585000	1628.527344	473.227081
9903.063830	4720.585000	1627.493164	576.841736
9903.063830	4720.585000	1626.458008	333.889099
9903.063830	4720.585000	1625.423828	689.253845
9903.063830	4720.585000	1624.388672	450.998444
9903.063830	4720.585000	1623.353516	482.970276
9903.063830	4720.585000	1622.318359	639.586670
9903.063830	4720.585000	1621.282227	634.586304
9903.063830	4720.585000	1620.247070	481.920013
9903.063830	4720.585000	1619.210938	511.568420
9903.063830	4720.585000	1618.174805	432.802643
9903.063830	4720.585000	1617.137695	582.373962
9903.063830	4720.585000	1616.101563	669.646362
9903.063830	4720.585000	1615.064453	678.509644
9903.063830	4720.585000	1614.027344	705.814941
9903.063830	4720.585000	1612.990234	712.378174
9903.063830	4720.585000	1611.953125	647.527893
9903.063830	4720.585000	1610.916016	824.571167
9903.063830	4720.585000	1609.877930	681.436096
9903.063830	4720.585000	1608.839844	881.443481
9903.063830	4720.585000	1607.801758	432.196289
9903.063830	4720.585000	1606.763672	689.736023
9903.063830	4720.585000	1605.724609	608.907837
9903.063830	4720.585000	1604.685547	530.423035
9903.063830	4720.585000	1603.646484	557.794861
9903.063830	4720.585000	1602.607422	633.464111
9903.063830	4720.585000	1601.568359	653.932251
9903.063830	4720.585000	1600.528320	501.979980
9903.063830	4720.585000	1599.489258	825.893799
9903.063830	4720.585000	1598.449219	736.042419
9903.063830	4720.585000	1597.408203	855.316956
9903.063830	4720.585000	1596.368164	618.507629
9903.063830	4720.585000	1595.327148	786.020447
9903.063830	4720.585000	1594.287109	788.158264
9903.063830	4720.585000	1593.246094	852.293884
9903.063830	4720.585000	1592.204102	808.534241
9903.063830	4720.585000	1591.163086	739.570801
9903.063830	4720.585000	1590.121094	847.319397
9903.063830	4720.585000	1589.079102	1028.453125
9903.063830	4720.585000	1588.037109	858.619934
9903.063830	4720.585000	1586.995117	805.821106
9903.063830	4720.585000	1585.953125	663.648010
9903.063830	4720.585000	1584.910156	661.370789
9903.063830	4720.585000	1583.867188	627.030701
9903.063830	4720.585000	1582.824219	837.895630
9903.063830	4720.585000	1581.781250	881.466125
9903.063830	4720.585000	1580.737305	980.006592
9903.063830	4720.585000	1579.693359	773.964355
9903.063830	4720.585000	1578.649414	932.059570
9903.063830	4720.585000	1577.605469	584.229187
9903.063830	4720.585000	1576.561523	705.728455
9903.063830	4720.585000	1575.516602	543.464600
9903.063830	4720.585000	1574.472656	475.089264
9903.063830	4720.585000	1573.427734	749.854980
9903.063830	4720.585000	1572.381836	450.537628
9903.063830	4720.585000	1571.336914	805.273071
