#X		#Y		#Wave		#Intensity
9372.840426	5029.075000	1999.946289	-11.454277
9372.840426	5029.075000	1998.981445	-236.996155
9372.840426	5029.075000	1998.017578	107.074463
9372.840426	5029.075000	1997.052734	106.385628
9372.840426	5029.075000	1996.088867	-325.587433
9372.840426	5029.075000	1995.124023	22.753075
9372.840426	5029.075000	1994.159180	-127.017883
9372.840426	5029.075000	1993.193359	176.271835
9372.840426	5029.075000	1992.228516	-85.186844
9372.840426	5029.075000	1991.262695	-128.858368
9372.840426	5029.075000	1990.296875	-241.948837
9372.840426	5029.075000	1989.331055	-60.672771
9372.840426	5029.075000	1988.365234	90.721024
9372.840426	5029.075000	1987.398438	-47.464928
9372.840426	5029.075000	1986.432617	34.384155
9372.840426	5029.075000	1985.465820	227.356293
9372.840426	5029.075000	1984.499023	-86.640205
9372.840426	5029.075000	1983.532227	202.465683
9372.840426	5029.075000	1982.565430	-119.027634
9372.840426	5029.075000	1981.597656	80.834457
9372.840426	5029.075000	1980.629883	278.060913
9372.840426	5029.075000	1979.662109	10.794618
9372.840426	5029.075000	1978.694336	165.810165
9372.840426	5029.075000	1977.726563	76.264900
9372.840426	5029.075000	1976.758789	28.642214
9372.840426	5029.075000	1975.790039	-16.567209
9372.840426	5029.075000	1974.821289	-118.581978
9372.840426	5029.075000	1973.852539	85.297844
9372.840426	5029.075000	1972.883789	197.775040
9372.840426	5029.075000	1971.915039	194.242722
9372.840426	5029.075000	1970.945313	262.163513
9372.840426	5029.075000	1969.975586	135.251312
9372.840426	5029.075000	1969.005859	77.353088
9372.840426	5029.075000	1968.036133	-44.640316
9372.840426	5029.075000	1967.066406	230.056396
9372.840426	5029.075000	1966.096680	125.244041
9372.840426	5029.075000	1965.125977	-31.288345
9372.840426	5029.075000	1964.155273	132.331146
9372.840426	5029.075000	1963.184570	29.957800
9372.840426	5029.075000	1962.213867	181.141174
9372.840426	5029.075000	1961.242188	251.023407
9372.840426	5029.075000	1960.271484	47.722454
9372.840426	5029.075000	1959.299805	144.623352
9372.840426	5029.075000	1958.328125	91.425865
9372.840426	5029.075000	1957.356445	-79.814964
9372.840426	5029.075000	1956.384766	-2.660348
9372.840426	5029.075000	1955.412109	62.162189
9372.840426	5029.075000	1954.439453	-3.319663
9372.840426	5029.075000	1953.467773	-88.442513
9372.840426	5029.075000	1952.495117	148.331345
9372.840426	5029.075000	1951.521484	215.509674
9372.840426	5029.075000	1950.548828	250.734406
9372.840426	5029.075000	1949.575195	-35.746010
9372.840426	5029.075000	1948.601563	-98.694283
9372.840426	5029.075000	1947.627930	110.861969
9372.840426	5029.075000	1946.654297	-89.519981
9372.840426	5029.075000	1945.680664	75.802055
9372.840426	5029.075000	1944.706055	-1.815131
9372.840426	5029.075000	1943.732422	295.905640
9372.840426	5029.075000	1942.757813	306.588501
9372.840426	5029.075000	1941.783203	-133.890106
9372.840426	5029.075000	1940.807617	77.922218
9372.840426	5029.075000	1939.833008	147.508362
9372.840426	5029.075000	1938.857422	187.676895
9372.840426	5029.075000	1937.881836	218.048218
9372.840426	5029.075000	1936.906250	-77.386368
9372.840426	5029.075000	1935.930664	-54.285999
9372.840426	5029.075000	1934.955078	20.251661
9372.840426	5029.075000	1933.978516	4.193395
9372.840426	5029.075000	1933.001953	-82.824158
9372.840426	5029.075000	1932.025391	-86.572632
9372.840426	5029.075000	1931.048828	12.478062
9372.840426	5029.075000	1930.072266	348.830627
9372.840426	5029.075000	1929.094727	27.088446
9372.840426	5029.075000	1928.118164	123.695251
9372.840426	5029.075000	1927.140625	-200.275726
9372.840426	5029.075000	1926.163086	91.968895
9372.840426	5029.075000	1925.184570	225.256088
9372.840426	5029.075000	1924.207031	-108.242287
9372.840426	5029.075000	1923.228516	10.430842
9372.840426	5029.075000	1922.250000	-73.669685
9372.840426	5029.075000	1921.271484	-101.532761
9372.840426	5029.075000	1920.292969	-209.940262
9372.840426	5029.075000	1919.314453	-44.825474
9372.840426	5029.075000	1918.334961	59.231304
9372.840426	5029.075000	1917.355469	82.741592
9372.840426	5029.075000	1916.375977	-179.223114
9372.840426	5029.075000	1915.396484	71.277771
9372.840426	5029.075000	1914.416992	68.036377
9372.840426	5029.075000	1913.436523	69.706795
9372.840426	5029.075000	1912.457031	47.025097
9372.840426	5029.075000	1911.476563	-75.568840
9372.840426	5029.075000	1910.496094	-171.272934
9372.840426	5029.075000	1909.515625	-47.582317
9372.840426	5029.075000	1908.534180	-240.651489
9372.840426	5029.075000	1907.552734	-136.417831
9372.840426	5029.075000	1906.572266	-122.307121
9372.840426	5029.075000	1905.590820	-10.764032
9372.840426	5029.075000	1904.608398	-118.353081
9372.840426	5029.075000	1903.626953	-130.933762
9372.840426	5029.075000	1902.644531	-85.067810
9372.840426	5029.075000	1901.663086	138.444672
9372.840426	5029.075000	1900.680664	-76.011665
9372.840426	5029.075000	1899.698242	164.506195
9372.840426	5029.075000	1898.714844	1.257885
9372.840426	5029.075000	1897.732422	66.663666
9372.840426	5029.075000	1896.749023	-62.409241
9372.840426	5029.075000	1895.765625	83.253456
9372.840426	5029.075000	1894.782227	-26.274403
9372.840426	5029.075000	1893.798828	-55.551830
9372.840426	5029.075000	1892.814453	-172.242950
9372.840426	5029.075000	1891.831055	-41.126259
9372.840426	5029.075000	1890.846680	-116.437790
9372.840426	5029.075000	1889.862305	19.530598
9372.840426	5029.075000	1888.877930	189.458084
9372.840426	5029.075000	1887.892578	-150.312576
9372.840426	5029.075000	1886.908203	194.344070
9372.840426	5029.075000	1885.922852	65.817162
9372.840426	5029.075000	1884.937500	-176.639481
9372.840426	5029.075000	1883.952148	114.549744
9372.840426	5029.075000	1882.965820	-52.612228
9372.840426	5029.075000	1881.980469	-62.113537
9372.840426	5029.075000	1880.994141	175.637268
9372.840426	5029.075000	1880.007813	-39.841515
9372.840426	5029.075000	1879.021484	-143.766373
9372.840426	5029.075000	1878.035156	-5.389921
9372.840426	5029.075000	1877.047852	-155.258942
9372.840426	5029.075000	1876.061523	-254.200806
9372.840426	5029.075000	1875.074219	85.124191
9372.840426	5029.075000	1874.086914	172.597397
9372.840426	5029.075000	1873.098633	8.360540
9372.840426	5029.075000	1872.111328	-204.194214
9372.840426	5029.075000	1871.123047	59.938953
9372.840426	5029.075000	1870.135742	-48.507034
9372.840426	5029.075000	1869.147461	-207.682587
9372.840426	5029.075000	1868.158203	-117.740746
9372.840426	5029.075000	1867.169922	385.559113
9372.840426	5029.075000	1866.180664	30.655506
9372.840426	5029.075000	1865.192383	-70.370171
9372.840426	5029.075000	1864.203125	-91.615494
9372.840426	5029.075000	1863.213867	-64.530403
9372.840426	5029.075000	1862.223633	-172.695801
9372.840426	5029.075000	1861.234375	-174.566544
9372.840426	5029.075000	1860.244141	-108.828018
9372.840426	5029.075000	1859.253906	53.443771
9372.840426	5029.075000	1858.263672	-66.702179
9372.840426	5029.075000	1857.273438	-222.991302
9372.840426	5029.075000	1856.282227	-77.661682
9372.840426	5029.075000	1855.291992	111.031898
9372.840426	5029.075000	1854.300781	77.795685
9372.840426	5029.075000	1853.309570	189.239197
9372.840426	5029.075000	1852.317383	160.826447
9372.840426	5029.075000	1851.326172	146.882751
9372.840426	5029.075000	1850.333984	185.959076
9372.840426	5029.075000	1849.342773	46.731289
9372.840426	5029.075000	1848.350586	-116.533821
9372.840426	5029.075000	1847.357422	132.090637
9372.840426	5029.075000	1846.365234	115.746376
9372.840426	5029.075000	1845.372070	226.998993
9372.840426	5029.075000	1844.379883	148.048782
9372.840426	5029.075000	1843.386719	-137.841370
9372.840426	5029.075000	1842.393555	100.898933
9372.840426	5029.075000	1841.399414	-33.334641
9372.840426	5029.075000	1840.406250	118.691475
9372.840426	5029.075000	1839.412109	-188.656418
9372.840426	5029.075000	1838.417969	-58.317616
9372.840426	5029.075000	1837.423828	4.652386
9372.840426	5029.075000	1836.429688	149.301590
9372.840426	5029.075000	1835.434570	231.406418
9372.840426	5029.075000	1834.440430	169.316803
9372.840426	5029.075000	1833.445313	56.793465
9372.840426	5029.075000	1832.450195	102.799545
9372.840426	5029.075000	1831.454102	-213.796783
9372.840426	5029.075000	1830.458984	-131.780197
9372.840426	5029.075000	1829.462891	130.203629
9372.840426	5029.075000	1828.466797	200.087631
9372.840426	5029.075000	1827.470703	133.165009
9372.840426	5029.075000	1826.474609	116.622421
9372.840426	5029.075000	1825.478516	167.219864
9372.840426	5029.075000	1824.481445	112.265839
9372.840426	5029.075000	1823.484375	124.439484
9372.840426	5029.075000	1822.487305	246.849426
9372.840426	5029.075000	1821.490234	-9.475798
9372.840426	5029.075000	1820.493164	-69.244957
9372.840426	5029.075000	1819.495117	84.198990
9372.840426	5029.075000	1818.498047	175.281876
9372.840426	5029.075000	1817.500000	-16.284006
9372.840426	5029.075000	1816.500977	-200.621536
9372.840426	5029.075000	1815.502930	139.341766
9372.840426	5029.075000	1814.504883	-47.408947
9372.840426	5029.075000	1813.505859	33.893608
9372.840426	5029.075000	1812.506836	155.807831
9372.840426	5029.075000	1811.507813	50.395523
9372.840426	5029.075000	1810.508789	-47.836185
9372.840426	5029.075000	1809.508789	-213.016602
9372.840426	5029.075000	1808.508789	-33.903591
9372.840426	5029.075000	1807.508789	102.081306
9372.840426	5029.075000	1806.508789	300.113190
9372.840426	5029.075000	1805.508789	294.938507
9372.840426	5029.075000	1804.508789	3.057585
9372.840426	5029.075000	1803.507813	93.403450
9372.840426	5029.075000	1802.506836	193.229248
9372.840426	5029.075000	1801.505859	99.586121
9372.840426	5029.075000	1800.504883	199.293777
9372.840426	5029.075000	1799.502930	236.870102
9372.840426	5029.075000	1798.501953	26.225750
9372.840426	5029.075000	1797.500000	214.040619
9372.840426	5029.075000	1796.498047	63.029049
9372.840426	5029.075000	1795.496094	-52.196220
9372.840426	5029.075000	1794.493164	35.253613
9372.840426	5029.075000	1793.491211	-1.339231
9372.840426	5029.075000	1792.488281	143.183273
9372.840426	5029.075000	1791.485352	27.853140
9372.840426	5029.075000	1790.482422	141.249908
9372.840426	5029.075000	1789.478516	-169.464325
9372.840426	5029.075000	1788.475586	-44.256859
9372.840426	5029.075000	1787.471680	-78.688812
9372.840426	5029.075000	1786.467773	308.245728
9372.840426	5029.075000	1785.463867	102.280647
9372.840426	5029.075000	1784.459961	-8.460466
9372.840426	5029.075000	1783.455078	-128.726883
9372.840426	5029.075000	1782.450195	60.270729
9372.840426	5029.075000	1781.445313	54.107128
9372.840426	5029.075000	1780.440430	-28.204416
9372.840426	5029.075000	1779.435547	281.775146
9372.840426	5029.075000	1778.429688	59.094215
9372.840426	5029.075000	1777.424805	150.176270
9372.840426	5029.075000	1776.418945	79.583328
9372.840426	5029.075000	1775.413086	256.050415
9372.840426	5029.075000	1774.406250	-125.817596
9372.840426	5029.075000	1773.400391	19.641518
9372.840426	5029.075000	1772.393555	119.875130
9372.840426	5029.075000	1771.386719	-19.760376
9372.840426	5029.075000	1770.379883	13.873363
9372.840426	5029.075000	1769.373047	49.813168
9372.840426	5029.075000	1768.365234	2.638285
9372.840426	5029.075000	1767.358398	-80.155388
9372.840426	5029.075000	1766.350586	297.149475
9372.840426	5029.075000	1765.342773	-98.796394
9372.840426	5029.075000	1764.334961	-37.070415
9372.840426	5029.075000	1763.326172	131.242401
9372.840426	5029.075000	1762.318359	138.279160
9372.840426	5029.075000	1761.309570	-134.349731
9372.840426	5029.075000	1760.300781	40.822182
9372.840426	5029.075000	1759.291016	265.609131
9372.840426	5029.075000	1758.282227	142.133026
9372.840426	5029.075000	1757.272461	-64.225540
9372.840426	5029.075000	1756.262695	-111.956924
9372.840426	5029.075000	1755.252930	-12.986054
9372.840426	5029.075000	1754.243164	421.912537
9372.840426	5029.075000	1753.233398	189.398849
9372.840426	5029.075000	1752.222656	56.262436
9372.840426	5029.075000	1751.211914	-140.738678
9372.840426	5029.075000	1750.201172	68.982338
9372.840426	5029.075000	1749.190430	-97.330429
9372.840426	5029.075000	1748.179688	-169.093063
9372.840426	5029.075000	1747.167969	-21.111019
9372.840426	5029.075000	1746.156250	93.676834
9372.840426	5029.075000	1745.144531	295.765564
9372.840426	5029.075000	1744.132813	67.860275
9372.840426	5029.075000	1743.121094	35.978512
9372.840426	5029.075000	1742.108398	60.710121
9372.840426	5029.075000	1741.095703	-101.108063
9372.840426	5029.075000	1740.083008	-41.078545
9372.840426	5029.075000	1739.070313	96.735237
9372.840426	5029.075000	1738.057617	-46.303383
9372.840426	5029.075000	1737.043945	15.857123
9372.840426	5029.075000	1736.030273	21.336153
9372.840426	5029.075000	1735.016602	-171.301758
9372.840426	5029.075000	1734.002930	105.187630
9372.840426	5029.075000	1732.989258	2.050517
9372.840426	5029.075000	1731.974609	-30.416679
9372.840426	5029.075000	1730.959961	104.345222
9372.840426	5029.075000	1729.945313	-29.536682
9372.840426	5029.075000	1728.930664	-215.239014
9372.840426	5029.075000	1727.916016	-170.172729
9372.840426	5029.075000	1726.900391	-16.893202
9372.840426	5029.075000	1725.885742	272.789856
9372.840426	5029.075000	1724.870117	-70.738380
9372.840426	5029.075000	1723.853516	-162.442719
9372.840426	5029.075000	1722.837891	-14.221396
9372.840426	5029.075000	1721.822266	-296.522400
9372.840426	5029.075000	1720.805664	-190.779266
9372.840426	5029.075000	1719.789063	-197.984863
9372.840426	5029.075000	1718.772461	1.608156
9372.840426	5029.075000	1717.754883	-130.308914
9372.840426	5029.075000	1716.738281	-165.890411
9372.840426	5029.075000	1715.720703	-152.184677
9372.840426	5029.075000	1714.703125	0.038440
9372.840426	5029.075000	1713.685547	-211.848709
9372.840426	5029.075000	1712.667969	-12.826268
9372.840426	5029.075000	1711.649414	85.118111
9372.840426	5029.075000	1710.630859	-9.485388
9372.840426	5029.075000	1709.612305	67.190720
9372.840426	5029.075000	1708.593750	-39.212601
9372.840426	5029.075000	1707.575195	-176.124664
9372.840426	5029.075000	1706.555664	-64.451302
9372.840426	5029.075000	1705.536133	-6.803629
9372.840426	5029.075000	1704.516602	-28.938097
9372.840426	5029.075000	1703.497070	-76.900215
9372.840426	5029.075000	1702.477539	11.020379
9372.840426	5029.075000	1701.457031	2.789752
9372.840426	5029.075000	1700.437500	-73.418541
9372.840426	5029.075000	1699.416992	-79.392548
9372.840426	5029.075000	1698.395508	151.080933
9372.840426	5029.075000	1697.375000	156.669891
9372.840426	5029.075000	1696.354492	274.559113
9372.840426	5029.075000	1695.333008	-54.641068
9372.840426	5029.075000	1694.311523	-74.910271
9372.840426	5029.075000	1693.290039	12.390644
9372.840426	5029.075000	1692.267578	-265.267700
9372.840426	5029.075000	1691.246094	-9.692319
9372.840426	5029.075000	1690.223633	147.535065
9372.840426	5029.075000	1689.201172	-38.967289
9372.840426	5029.075000	1688.178711	36.310902
9372.840426	5029.075000	1687.155273	-12.333737
9372.840426	5029.075000	1686.132813	-65.673576
9372.840426	5029.075000	1685.109375	77.160454
9372.840426	5029.075000	1684.085938	-144.414322
9372.840426	5029.075000	1683.062500	133.713013
9372.840426	5029.075000	1682.039063	124.555710
9372.840426	5029.075000	1681.014648	178.370163
9372.840426	5029.075000	1679.990234	220.452805
9372.840426	5029.075000	1678.965820	421.126495
9372.840426	5029.075000	1677.941406	472.392792
9372.840426	5029.075000	1676.916992	344.021820
9372.840426	5029.075000	1675.891602	131.711212
9372.840426	5029.075000	1674.866211	278.457825
9372.840426	5029.075000	1673.840820	350.523071
9372.840426	5029.075000	1672.815430	326.974884
9372.840426	5029.075000	1671.790039	133.314896
9372.840426	5029.075000	1670.763672	112.065811
9372.840426	5029.075000	1669.737305	169.974686
9372.840426	5029.075000	1668.710938	195.224808
9372.840426	5029.075000	1667.684570	215.772842
9372.840426	5029.075000	1666.658203	122.222015
9372.840426	5029.075000	1665.630859	319.569519
9372.840426	5029.075000	1664.603516	263.188538
9372.840426	5029.075000	1663.576172	190.511444
9372.840426	5029.075000	1662.548828	441.127747
9372.840426	5029.075000	1661.520508	270.705444
9372.840426	5029.075000	1660.493164	532.769958
9372.840426	5029.075000	1659.464844	322.816772
9372.840426	5029.075000	1658.436523	668.371582
9372.840426	5029.075000	1657.408203	500.238861
9372.840426	5029.075000	1656.378906	492.436096
9372.840426	5029.075000	1655.350586	484.615936
9372.840426	5029.075000	1654.321289	416.384949
9372.840426	5029.075000	1653.291992	501.394989
9372.840426	5029.075000	1652.261719	333.309052
9372.840426	5029.075000	1651.232422	515.731079
9372.840426	5029.075000	1650.202148	660.923828
9372.840426	5029.075000	1649.171875	699.313599
9372.840426	5029.075000	1648.141602	568.336792
9372.840426	5029.075000	1647.111328	564.941284
9372.840426	5029.075000	1646.080078	760.925842
9372.840426	5029.075000	1645.049805	889.591797
9372.840426	5029.075000	1644.018555	607.932251
9372.840426	5029.075000	1642.987305	595.173462
9372.840426	5029.075000	1641.955078	675.071045
9372.840426	5029.075000	1640.923828	868.432495
9372.840426	5029.075000	1639.891602	779.143250
9372.840426	5029.075000	1638.859375	833.437500
9372.840426	5029.075000	1637.827148	894.638306
9372.840426	5029.075000	1636.794922	995.150696
9372.840426	5029.075000	1635.761719	1021.550659
9372.840426	5029.075000	1634.729492	964.637878
9372.840426	5029.075000	1633.696289	986.379822
9372.840426	5029.075000	1632.662109	1075.167847
9372.840426	5029.075000	1631.628906	1002.047852
9372.840426	5029.075000	1630.594727	670.000916
9372.840426	5029.075000	1629.561523	1091.633545
9372.840426	5029.075000	1628.527344	979.231506
9372.840426	5029.075000	1627.493164	1153.380493
9372.840426	5029.075000	1626.458008	950.892883
9372.840426	5029.075000	1625.423828	1120.347778
9372.840426	5029.075000	1624.388672	1225.066040
9372.840426	5029.075000	1623.353516	1135.799561
9372.840426	5029.075000	1622.318359	979.619568
9372.840426	5029.075000	1621.282227	985.045105
9372.840426	5029.075000	1620.247070	1161.225952
9372.840426	5029.075000	1619.210938	968.207275
9372.840426	5029.075000	1618.174805	1255.030273
9372.840426	5029.075000	1617.137695	1158.919189
9372.840426	5029.075000	1616.101563	1099.744141
9372.840426	5029.075000	1615.064453	1204.257813
9372.840426	5029.075000	1614.027344	1122.048096
9372.840426	5029.075000	1612.990234	1155.088257
9372.840426	5029.075000	1611.953125	1372.432007
9372.840426	5029.075000	1610.916016	1532.111328
9372.840426	5029.075000	1609.877930	1198.887695
9372.840426	5029.075000	1608.839844	1372.358765
9372.840426	5029.075000	1607.801758	1426.062378
9372.840426	5029.075000	1606.763672	1146.015137
9372.840426	5029.075000	1605.724609	1238.872925
9372.840426	5029.075000	1604.685547	1646.905151
9372.840426	5029.075000	1603.646484	1530.323730
9372.840426	5029.075000	1602.607422	1563.289551
9372.840426	5029.075000	1601.568359	1837.690063
9372.840426	5029.075000	1600.528320	1695.882690
9372.840426	5029.075000	1599.489258	1708.151367
9372.840426	5029.075000	1598.449219	1633.096436
9372.840426	5029.075000	1597.408203	1762.566650
9372.840426	5029.075000	1596.368164	1554.330200
9372.840426	5029.075000	1595.327148	1493.173096
9372.840426	5029.075000	1594.287109	1425.177979
9372.840426	5029.075000	1593.246094	1511.039429
9372.840426	5029.075000	1592.204102	1424.728882
9372.840426	5029.075000	1591.163086	1618.459717
9372.840426	5029.075000	1590.121094	1121.496704
9372.840426	5029.075000	1589.079102	1099.611206
9372.840426	5029.075000	1588.037109	1213.077148
9372.840426	5029.075000	1586.995117	1317.350708
9372.840426	5029.075000	1585.953125	1203.805420
9372.840426	5029.075000	1584.910156	1115.537476
9372.840426	5029.075000	1583.867188	857.741394
9372.840426	5029.075000	1582.824219	1007.927917
9372.840426	5029.075000	1581.781250	935.869263
9372.840426	5029.075000	1580.737305	1193.680908
9372.840426	5029.075000	1579.693359	1107.926758
9372.840426	5029.075000	1578.649414	969.578247
9372.840426	5029.075000	1577.605469	1261.661499
9372.840426	5029.075000	1576.561523	933.442932
9372.840426	5029.075000	1575.516602	770.130066
