#X		#Y		#Wave		#Intensity
10514.113298	5195.865000	1999.946289	87.050240
10514.113298	5195.865000	1998.981445	112.262978
10514.113298	5195.865000	1998.017578	-12.851137
10514.113298	5195.865000	1997.052734	122.673630
10514.113298	5195.865000	1996.088867	-33.817070
10514.113298	5195.865000	1995.124023	-31.337896
10514.113298	5195.865000	1994.159180	30.950150
10514.113298	5195.865000	1993.193359	14.325694
10514.113298	5195.865000	1992.228516	-88.589592
10514.113298	5195.865000	1991.262695	100.958977
10514.113298	5195.865000	1990.296875	-60.667900
10514.113298	5195.865000	1989.331055	-256.556854
10514.113298	5195.865000	1988.365234	176.330688
10514.113298	5195.865000	1987.398438	67.654335
10514.113298	5195.865000	1986.432617	8.777950
10514.113298	5195.865000	1985.465820	21.911373
10514.113298	5195.865000	1984.499023	153.978836
10514.113298	5195.865000	1983.532227	-74.598434
10514.113298	5195.865000	1982.565430	-6.282790
10514.113298	5195.865000	1981.597656	173.440567
10514.113298	5195.865000	1980.629883	64.317627
10514.113298	5195.865000	1979.662109	-22.298065
10514.113298	5195.865000	1978.694336	145.695206
10514.113298	5195.865000	1977.726563	143.493073
10514.113298	5195.865000	1976.758789	20.552073
10514.113298	5195.865000	1975.790039	-151.496460
10514.113298	5195.865000	1974.821289	2.437672
10514.113298	5195.865000	1973.852539	-1.383890
10514.113298	5195.865000	1972.883789	39.383652
10514.113298	5195.865000	1971.915039	28.528597
10514.113298	5195.865000	1970.945313	12.920261
10514.113298	5195.865000	1969.975586	81.306725
10514.113298	5195.865000	1969.005859	-106.509644
10514.113298	5195.865000	1968.036133	23.802956
10514.113298	5195.865000	1967.066406	-171.015335
10514.113298	5195.865000	1966.096680	48.241550
10514.113298	5195.865000	1965.125977	-156.074875
10514.113298	5195.865000	1964.155273	-22.815414
10514.113298	5195.865000	1963.184570	12.040854
10514.113298	5195.865000	1962.213867	15.008112
10514.113298	5195.865000	1961.242188	-124.653946
10514.113298	5195.865000	1960.271484	-18.080738
10514.113298	5195.865000	1959.299805	-31.989498
10514.113298	5195.865000	1958.328125	-43.328743
10514.113298	5195.865000	1957.356445	-2.918678
10514.113298	5195.865000	1956.384766	37.571972
10514.113298	5195.865000	1955.412109	-20.198376
10514.113298	5195.865000	1954.439453	-11.495605
10514.113298	5195.865000	1953.467773	260.235443
10514.113298	5195.865000	1952.495117	-13.516287
10514.113298	5195.865000	1951.521484	56.828300
10514.113298	5195.865000	1950.548828	-128.221527
10514.113298	5195.865000	1949.575195	-16.000278
10514.113298	5195.865000	1948.601563	-36.339191
10514.113298	5195.865000	1947.627930	-61.523277
10514.113298	5195.865000	1946.654297	50.797306
10514.113298	5195.865000	1945.680664	74.789879
10514.113298	5195.865000	1944.706055	-70.461548
10514.113298	5195.865000	1943.732422	54.204498
10514.113298	5195.865000	1942.757813	-76.188675
10514.113298	5195.865000	1941.783203	-105.964249
10514.113298	5195.865000	1940.807617	55.528706
10514.113298	5195.865000	1939.833008	126.301270
10514.113298	5195.865000	1938.857422	140.712326
10514.113298	5195.865000	1937.881836	0.781642
10514.113298	5195.865000	1936.906250	-121.925255
10514.113298	5195.865000	1935.930664	-55.972641
10514.113298	5195.865000	1934.955078	-41.453060
10514.113298	5195.865000	1933.978516	-31.818407
10514.113298	5195.865000	1933.001953	12.094892
10514.113298	5195.865000	1932.025391	31.527527
10514.113298	5195.865000	1931.048828	9.361860
10514.113298	5195.865000	1930.072266	212.289902
10514.113298	5195.865000	1929.094727	77.587646
10514.113298	5195.865000	1928.118164	52.988354
10514.113298	5195.865000	1927.140625	-98.750450
10514.113298	5195.865000	1926.163086	47.817451
10514.113298	5195.865000	1925.184570	-57.430134
10514.113298	5195.865000	1924.207031	40.186596
10514.113298	5195.865000	1923.228516	96.222260
10514.113298	5195.865000	1922.250000	-65.191132
10514.113298	5195.865000	1921.271484	-16.508492
10514.113298	5195.865000	1920.292969	32.141518
10514.113298	5195.865000	1919.314453	-153.629501
10514.113298	5195.865000	1918.334961	-56.184628
10514.113298	5195.865000	1917.355469	46.086010
10514.113298	5195.865000	1916.375977	84.852776
10514.113298	5195.865000	1915.396484	77.228470
10514.113298	5195.865000	1914.416992	-40.183815
10514.113298	5195.865000	1913.436523	135.078140
10514.113298	5195.865000	1912.457031	-77.448357
10514.113298	5195.865000	1911.476563	212.280731
10514.113298	5195.865000	1910.496094	253.254715
10514.113298	5195.865000	1909.515625	-3.126234
10514.113298	5195.865000	1908.534180	49.993755
10514.113298	5195.865000	1907.552734	64.084656
10514.113298	5195.865000	1906.572266	34.294342
10514.113298	5195.865000	1905.590820	43.443123
10514.113298	5195.865000	1904.608398	-37.528667
10514.113298	5195.865000	1903.626953	-21.140404
10514.113298	5195.865000	1902.644531	-89.976173
10514.113298	5195.865000	1901.663086	50.439022
10514.113298	5195.865000	1900.680664	54.522964
10514.113298	5195.865000	1899.698242	-50.894413
10514.113298	5195.865000	1898.714844	123.364059
10514.113298	5195.865000	1897.732422	-16.150978
10514.113298	5195.865000	1896.749023	-87.586372
10514.113298	5195.865000	1895.765625	98.605873
10514.113298	5195.865000	1894.782227	-53.106113
10514.113298	5195.865000	1893.798828	-131.915298
10514.113298	5195.865000	1892.814453	32.184525
10514.113298	5195.865000	1891.831055	128.169495
10514.113298	5195.865000	1890.846680	-52.755032
10514.113298	5195.865000	1889.862305	164.511139
10514.113298	5195.865000	1888.877930	44.238056
10514.113298	5195.865000	1887.892578	21.042189
10514.113298	5195.865000	1886.908203	12.364155
10514.113298	5195.865000	1885.922852	37.606224
10514.113298	5195.865000	1884.937500	57.939270
10514.113298	5195.865000	1883.952148	-26.066715
10514.113298	5195.865000	1882.965820	166.324722
10514.113298	5195.865000	1881.980469	67.684669
10514.113298	5195.865000	1880.994141	155.663086
10514.113298	5195.865000	1880.007813	42.421444
10514.113298	5195.865000	1879.021484	224.763229
10514.113298	5195.865000	1878.035156	101.759537
10514.113298	5195.865000	1877.047852	332.358551
10514.113298	5195.865000	1876.061523	-20.766317
10514.113298	5195.865000	1875.074219	209.666214
10514.113298	5195.865000	1874.086914	-116.779640
10514.113298	5195.865000	1873.098633	96.539497
10514.113298	5195.865000	1872.111328	157.284790
10514.113298	5195.865000	1871.123047	-178.800888
10514.113298	5195.865000	1870.135742	-280.188934
10514.113298	5195.865000	1869.147461	77.891647
10514.113298	5195.865000	1868.158203	-9.105193
10514.113298	5195.865000	1867.169922	-108.209122
10514.113298	5195.865000	1866.180664	53.705116
10514.113298	5195.865000	1865.192383	130.928406
10514.113298	5195.865000	1864.203125	41.361214
10514.113298	5195.865000	1863.213867	-67.550667
10514.113298	5195.865000	1862.223633	50.550568
10514.113298	5195.865000	1861.234375	129.921112
10514.113298	5195.865000	1860.244141	204.379028
10514.113298	5195.865000	1859.253906	47.032471
10514.113298	5195.865000	1858.263672	-6.533497
10514.113298	5195.865000	1857.273438	36.383373
10514.113298	5195.865000	1856.282227	154.017593
10514.113298	5195.865000	1855.291992	44.829159
10514.113298	5195.865000	1854.300781	-115.013847
10514.113298	5195.865000	1853.309570	267.645935
10514.113298	5195.865000	1852.317383	69.146355
10514.113298	5195.865000	1851.326172	-110.048264
10514.113298	5195.865000	1850.333984	190.307938
10514.113298	5195.865000	1849.342773	85.741997
10514.113298	5195.865000	1848.350586	152.190002
10514.113298	5195.865000	1847.357422	-5.418307
10514.113298	5195.865000	1846.365234	-52.251888
10514.113298	5195.865000	1845.372070	95.882896
10514.113298	5195.865000	1844.379883	-54.555737
10514.113298	5195.865000	1843.386719	-130.387024
10514.113298	5195.865000	1842.393555	-54.655178
10514.113298	5195.865000	1841.399414	-5.466158
10514.113298	5195.865000	1840.406250	-47.741230
10514.113298	5195.865000	1839.412109	244.207809
10514.113298	5195.865000	1838.417969	40.712933
10514.113298	5195.865000	1837.423828	111.282188
10514.113298	5195.865000	1836.429688	140.918732
10514.113298	5195.865000	1835.434570	-0.116486
10514.113298	5195.865000	1834.440430	-21.020514
10514.113298	5195.865000	1833.445313	63.721447
10514.113298	5195.865000	1832.450195	294.880157
10514.113298	5195.865000	1831.454102	136.918549
10514.113298	5195.865000	1830.458984	130.212204
10514.113298	5195.865000	1829.462891	82.654480
10514.113298	5195.865000	1828.466797	179.053436
10514.113298	5195.865000	1827.470703	66.628044
10514.113298	5195.865000	1826.474609	251.656891
10514.113298	5195.865000	1825.478516	182.337463
10514.113298	5195.865000	1824.481445	84.219307
10514.113298	5195.865000	1823.484375	321.741547
10514.113298	5195.865000	1822.487305	309.835114
10514.113298	5195.865000	1821.490234	204.418213
10514.113298	5195.865000	1820.493164	-39.980598
10514.113298	5195.865000	1819.495117	41.478016
10514.113298	5195.865000	1818.498047	-111.870277
10514.113298	5195.865000	1817.500000	48.509373
10514.113298	5195.865000	1816.500977	-143.188583
10514.113298	5195.865000	1815.502930	-128.981766
10514.113298	5195.865000	1814.504883	21.600925
10514.113298	5195.865000	1813.505859	-2.609234
10514.113298	5195.865000	1812.506836	-43.601341
10514.113298	5195.865000	1811.507813	-53.526531
10514.113298	5195.865000	1810.508789	27.390810
10514.113298	5195.865000	1809.508789	127.360695
10514.113298	5195.865000	1808.508789	12.082661
10514.113298	5195.865000	1807.508789	102.368454
10514.113298	5195.865000	1806.508789	30.068888
10514.113298	5195.865000	1805.508789	105.894135
10514.113298	5195.865000	1804.508789	88.480148
10514.113298	5195.865000	1803.507813	-103.331474
10514.113298	5195.865000	1802.506836	-27.654446
10514.113298	5195.865000	1801.505859	-66.652618
10514.113298	5195.865000	1800.504883	283.421295
10514.113298	5195.865000	1799.502930	-13.467293
10514.113298	5195.865000	1798.501953	50.034527
10514.113298	5195.865000	1797.500000	-20.134800
10514.113298	5195.865000	1796.498047	-30.686419
10514.113298	5195.865000	1795.496094	68.427711
10514.113298	5195.865000	1794.493164	26.780258
10514.113298	5195.865000	1793.491211	13.717630
10514.113298	5195.865000	1792.488281	-170.995941
10514.113298	5195.865000	1791.485352	-57.799953
10514.113298	5195.865000	1790.482422	57.695431
10514.113298	5195.865000	1789.478516	84.963058
10514.113298	5195.865000	1788.475586	-123.603424
10514.113298	5195.865000	1787.471680	1.238334
10514.113298	5195.865000	1786.467773	28.381054
10514.113298	5195.865000	1785.463867	107.840523
10514.113298	5195.865000	1784.459961	-10.301081
10514.113298	5195.865000	1783.455078	57.155415
10514.113298	5195.865000	1782.450195	-61.015297
10514.113298	5195.865000	1781.445313	-136.366791
10514.113298	5195.865000	1780.440430	-47.641094
10514.113298	5195.865000	1779.435547	12.479297
10514.113298	5195.865000	1778.429688	127.209953
10514.113298	5195.865000	1777.424805	113.517570
10514.113298	5195.865000	1776.418945	-38.037018
10514.113298	5195.865000	1775.413086	211.943192
10514.113298	5195.865000	1774.406250	-15.666243
10514.113298	5195.865000	1773.400391	25.142660
10514.113298	5195.865000	1772.393555	108.634544
10514.113298	5195.865000	1771.386719	-50.096191
10514.113298	5195.865000	1770.379883	-73.509415
10514.113298	5195.865000	1769.373047	-208.490753
10514.113298	5195.865000	1768.365234	62.264805
10514.113298	5195.865000	1767.358398	-184.260712
10514.113298	5195.865000	1766.350586	-120.033592
10514.113298	5195.865000	1765.342773	1.042726
10514.113298	5195.865000	1764.334961	74.617729
10514.113298	5195.865000	1763.326172	107.824379
10514.113298	5195.865000	1762.318359	-41.502449
10514.113298	5195.865000	1761.309570	-162.381119
10514.113298	5195.865000	1760.300781	110.014526
10514.113298	5195.865000	1759.291016	29.338800
10514.113298	5195.865000	1758.282227	-46.601482
10514.113298	5195.865000	1757.272461	-155.704865
10514.113298	5195.865000	1756.262695	149.467255
10514.113298	5195.865000	1755.252930	49.760639
10514.113298	5195.865000	1754.243164	49.440979
10514.113298	5195.865000	1753.233398	214.698761
10514.113298	5195.865000	1752.222656	-199.688934
10514.113298	5195.865000	1751.211914	-136.222794
10514.113298	5195.865000	1750.201172	-84.641052
10514.113298	5195.865000	1749.190430	-42.573544
10514.113298	5195.865000	1748.179688	-59.651089
10514.113298	5195.865000	1747.167969	-216.194427
10514.113298	5195.865000	1746.156250	-108.085938
10514.113298	5195.865000	1745.144531	-11.867569
10514.113298	5195.865000	1744.132813	-92.863518
10514.113298	5195.865000	1743.121094	0.878408
10514.113298	5195.865000	1742.108398	-2.257648
10514.113298	5195.865000	1741.095703	138.560944
10514.113298	5195.865000	1740.083008	78.682854
10514.113298	5195.865000	1739.070313	-40.199528
10514.113298	5195.865000	1738.057617	-281.750244
10514.113298	5195.865000	1737.043945	-37.357758
10514.113298	5195.865000	1736.030273	15.883944
10514.113298	5195.865000	1735.016602	36.058861
10514.113298	5195.865000	1734.002930	148.125992
10514.113298	5195.865000	1732.989258	179.977936
10514.113298	5195.865000	1731.974609	-219.457565
10514.113298	5195.865000	1730.959961	-8.573149
10514.113298	5195.865000	1729.945313	-61.628574
10514.113298	5195.865000	1728.930664	-77.019341
10514.113298	5195.865000	1727.916016	79.447914
10514.113298	5195.865000	1726.900391	19.224209
10514.113298	5195.865000	1725.885742	142.585220
10514.113298	5195.865000	1724.870117	79.943695
10514.113298	5195.865000	1723.853516	-43.891884
10514.113298	5195.865000	1722.837891	142.805542
10514.113298	5195.865000	1721.822266	-9.287506
10514.113298	5195.865000	1720.805664	-107.281731
10514.113298	5195.865000	1719.789063	-12.489339
10514.113298	5195.865000	1718.772461	-87.015808
10514.113298	5195.865000	1717.754883	136.911850
10514.113298	5195.865000	1716.738281	27.065012
10514.113298	5195.865000	1715.720703	88.710312
10514.113298	5195.865000	1714.703125	51.645077
10514.113298	5195.865000	1713.685547	12.207195
10514.113298	5195.865000	1712.667969	-121.170715
10514.113298	5195.865000	1711.649414	168.000916
10514.113298	5195.865000	1710.630859	88.542992
10514.113298	5195.865000	1709.612305	79.475037
10514.113298	5195.865000	1708.593750	-4.703917
10514.113298	5195.865000	1707.575195	-4.445050
10514.113298	5195.865000	1706.555664	-98.039230
10514.113298	5195.865000	1705.536133	174.145172
10514.113298	5195.865000	1704.516602	143.772202
10514.113298	5195.865000	1703.497070	326.663147
10514.113298	5195.865000	1702.477539	66.541679
10514.113298	5195.865000	1701.457031	265.694855
10514.113298	5195.865000	1700.437500	178.952774
10514.113298	5195.865000	1699.416992	-8.508857
10514.113298	5195.865000	1698.395508	-10.956727
10514.113298	5195.865000	1697.375000	-18.118166
10514.113298	5195.865000	1696.354492	222.799713
10514.113298	5195.865000	1695.333008	-86.381020
10514.113298	5195.865000	1694.311523	44.402283
10514.113298	5195.865000	1693.290039	109.594948
10514.113298	5195.865000	1692.267578	123.261131
10514.113298	5195.865000	1691.246094	-94.618088
10514.113298	5195.865000	1690.223633	31.229099
10514.113298	5195.865000	1689.201172	-18.328800
10514.113298	5195.865000	1688.178711	44.276588
10514.113298	5195.865000	1687.155273	113.820190
10514.113298	5195.865000	1686.132813	246.385010
10514.113298	5195.865000	1685.109375	54.181000
10514.113298	5195.865000	1684.085938	-63.258129
10514.113298	5195.865000	1683.062500	339.984650
10514.113298	5195.865000	1682.039063	220.124237
10514.113298	5195.865000	1681.014648	41.914822
10514.113298	5195.865000	1679.990234	267.433258
10514.113298	5195.865000	1678.965820	19.213770
10514.113298	5195.865000	1677.941406	200.253464
10514.113298	5195.865000	1676.916992	315.883423
10514.113298	5195.865000	1675.891602	221.568710
10514.113298	5195.865000	1674.866211	78.294487
10514.113298	5195.865000	1673.840820	270.675079
10514.113298	5195.865000	1672.815430	243.887329
10514.113298	5195.865000	1671.790039	142.515244
10514.113298	5195.865000	1670.763672	101.701447
10514.113298	5195.865000	1669.737305	158.684250
10514.113298	5195.865000	1668.710938	224.920761
10514.113298	5195.865000	1667.684570	104.843651
10514.113298	5195.865000	1666.658203	338.580933
10514.113298	5195.865000	1665.630859	262.660828
10514.113298	5195.865000	1664.603516	182.077652
10514.113298	5195.865000	1663.576172	266.657684
10514.113298	5195.865000	1662.548828	325.581696
10514.113298	5195.865000	1661.520508	344.905090
10514.113298	5195.865000	1660.493164	294.441071
10514.113298	5195.865000	1659.464844	362.502563
10514.113298	5195.865000	1658.436523	411.906403
10514.113298	5195.865000	1657.408203	426.398773
10514.113298	5195.865000	1656.378906	466.395294
10514.113298	5195.865000	1655.350586	638.742798
10514.113298	5195.865000	1654.321289	618.227417
10514.113298	5195.865000	1653.291992	588.395691
10514.113298	5195.865000	1652.261719	307.820404
10514.113298	5195.865000	1651.232422	582.029236
10514.113298	5195.865000	1650.202148	559.062988
10514.113298	5195.865000	1649.171875	278.544617
10514.113298	5195.865000	1648.141602	561.758362
10514.113298	5195.865000	1647.111328	640.741455
10514.113298	5195.865000	1646.080078	378.800964
10514.113298	5195.865000	1645.049805	466.988312
10514.113298	5195.865000	1644.018555	717.343079
10514.113298	5195.865000	1642.987305	522.633850
10514.113298	5195.865000	1641.955078	673.172302
10514.113298	5195.865000	1640.923828	443.728058
10514.113298	5195.865000	1639.891602	705.319946
10514.113298	5195.865000	1638.859375	772.269287
10514.113298	5195.865000	1637.827148	829.895691
10514.113298	5195.865000	1636.794922	894.409302
10514.113298	5195.865000	1635.761719	820.001526
10514.113298	5195.865000	1634.729492	782.616272
10514.113298	5195.865000	1633.696289	691.996521
10514.113298	5195.865000	1632.662109	807.211731
10514.113298	5195.865000	1631.628906	987.104431
10514.113298	5195.865000	1630.594727	1009.670349
10514.113298	5195.865000	1629.561523	842.659302
10514.113298	5195.865000	1628.527344	985.352234
10514.113298	5195.865000	1627.493164	825.266174
10514.113298	5195.865000	1626.458008	919.317017
10514.113298	5195.865000	1625.423828	997.140564
10514.113298	5195.865000	1624.388672	855.510620
10514.113298	5195.865000	1623.353516	1083.313599
10514.113298	5195.865000	1622.318359	1216.352539
10514.113298	5195.865000	1621.282227	947.719910
10514.113298	5195.865000	1620.247070	1253.729492
10514.113298	5195.865000	1619.210938	1215.832642
10514.113298	5195.865000	1618.174805	1288.634644
10514.113298	5195.865000	1617.137695	1204.552246
10514.113298	5195.865000	1616.101563	1452.496948
10514.113298	5195.865000	1615.064453	1460.561646
10514.113298	5195.865000	1614.027344	1480.116333
10514.113298	5195.865000	1612.990234	1416.677979
10514.113298	5195.865000	1611.953125	1549.063232
10514.113298	5195.865000	1610.916016	1492.487305
10514.113298	5195.865000	1609.877930	1422.075806
10514.113298	5195.865000	1608.839844	1669.412598
10514.113298	5195.865000	1607.801758	1619.655396
10514.113298	5195.865000	1606.763672	1634.334717
10514.113298	5195.865000	1605.724609	1747.922729
10514.113298	5195.865000	1604.685547	1670.476318
10514.113298	5195.865000	1603.646484	1622.937134
10514.113298	5195.865000	1602.607422	1890.466675
10514.113298	5195.865000	1601.568359	1847.448242
10514.113298	5195.865000	1600.528320	2004.417236
10514.113298	5195.865000	1599.489258	1883.192383
10514.113298	5195.865000	1598.449219	1996.378662
10514.113298	5195.865000	1597.408203	2307.079590
10514.113298	5195.865000	1596.368164	2231.723877
10514.113298	5195.865000	1595.327148	2027.746948
10514.113298	5195.865000	1594.287109	2205.012695
10514.113298	5195.865000	1593.246094	2033.214844
10514.113298	5195.865000	1592.204102	2038.191528
10514.113298	5195.865000	1591.163086	1655.314453
10514.113298	5195.865000	1590.121094	1944.830933
10514.113298	5195.865000	1589.079102	1646.945557
10514.113298	5195.865000	1588.037109	1837.683228
10514.113298	5195.865000	1586.995117	1425.236816
10514.113298	5195.865000	1585.953125	1324.732544
10514.113298	5195.865000	1584.910156	1453.458862
10514.113298	5195.865000	1583.867188	1529.403564
10514.113298	5195.865000	1582.824219	1195.153320
