#X		#Y		#Wave		#Intensity
10102.280851	4245.050000	1999.946289	1.446592
10102.280851	4245.050000	1998.981445	29.758478
10102.280851	4245.050000	1998.017578	12.035847
10102.280851	4245.050000	1997.052734	-109.828972
10102.280851	4245.050000	1996.088867	-147.474838
10102.280851	4245.050000	1995.124023	50.163067
10102.280851	4245.050000	1994.159180	-4.961915
10102.280851	4245.050000	1993.193359	56.259300
10102.280851	4245.050000	1992.228516	55.503162
10102.280851	4245.050000	1991.262695	69.543808
10102.280851	4245.050000	1990.296875	-17.946093
10102.280851	4245.050000	1989.331055	-46.070137
10102.280851	4245.050000	1988.365234	163.267746
10102.280851	4245.050000	1987.398438	147.388519
10102.280851	4245.050000	1986.432617	2.867968
10102.280851	4245.050000	1985.465820	41.328526
10102.280851	4245.050000	1984.499023	15.455167
10102.280851	4245.050000	1983.532227	-7.979941
10102.280851	4245.050000	1982.565430	20.448654
10102.280851	4245.050000	1981.597656	14.236735
10102.280851	4245.050000	1980.629883	193.262680
10102.280851	4245.050000	1979.662109	132.610062
10102.280851	4245.050000	1978.694336	7.741300
10102.280851	4245.050000	1977.726563	144.591934
10102.280851	4245.050000	1976.758789	108.567215
10102.280851	4245.050000	1975.790039	-8.920005
10102.280851	4245.050000	1974.821289	140.103424
10102.280851	4245.050000	1973.852539	-21.810884
10102.280851	4245.050000	1972.883789	-67.759270
10102.280851	4245.050000	1971.915039	-17.535378
10102.280851	4245.050000	1970.945313	94.289001
10102.280851	4245.050000	1969.975586	-47.874043
10102.280851	4245.050000	1969.005859	54.009884
10102.280851	4245.050000	1968.036133	-19.133253
10102.280851	4245.050000	1967.066406	-6.032796
10102.280851	4245.050000	1966.096680	68.630234
10102.280851	4245.050000	1965.125977	162.951721
10102.280851	4245.050000	1964.155273	18.356911
10102.280851	4245.050000	1963.184570	73.228172
10102.280851	4245.050000	1962.213867	253.606049
10102.280851	4245.050000	1961.242188	-4.181319
10102.280851	4245.050000	1960.271484	114.600822
10102.280851	4245.050000	1959.299805	16.826014
10102.280851	4245.050000	1958.328125	135.537094
10102.280851	4245.050000	1957.356445	64.827217
10102.280851	4245.050000	1956.384766	-27.995651
10102.280851	4245.050000	1955.412109	11.960893
10102.280851	4245.050000	1954.439453	120.718147
10102.280851	4245.050000	1953.467773	-28.607847
10102.280851	4245.050000	1952.495117	1.478711
10102.280851	4245.050000	1951.521484	-29.866196
10102.280851	4245.050000	1950.548828	-100.501167
10102.280851	4245.050000	1949.575195	22.882978
10102.280851	4245.050000	1948.601563	-150.861984
10102.280851	4245.050000	1947.627930	124.674248
10102.280851	4245.050000	1946.654297	127.679771
10102.280851	4245.050000	1945.680664	-23.909262
10102.280851	4245.050000	1944.706055	-50.320370
10102.280851	4245.050000	1943.732422	126.870918
10102.280851	4245.050000	1942.757813	63.654301
10102.280851	4245.050000	1941.783203	61.762257
10102.280851	4245.050000	1940.807617	99.096107
10102.280851	4245.050000	1939.833008	138.869797
10102.280851	4245.050000	1938.857422	34.042667
10102.280851	4245.050000	1937.881836	19.914019
10102.280851	4245.050000	1936.906250	-136.290634
10102.280851	4245.050000	1935.930664	25.971561
10102.280851	4245.050000	1934.955078	-90.987968
10102.280851	4245.050000	1933.978516	32.038631
10102.280851	4245.050000	1933.001953	-4.089393
10102.280851	4245.050000	1932.025391	91.962753
10102.280851	4245.050000	1931.048828	-61.608337
10102.280851	4245.050000	1930.072266	80.913437
10102.280851	4245.050000	1929.094727	42.377483
10102.280851	4245.050000	1928.118164	-8.365376
10102.280851	4245.050000	1927.140625	2.044985
10102.280851	4245.050000	1926.163086	100.467667
10102.280851	4245.050000	1925.184570	193.971268
10102.280851	4245.050000	1924.207031	170.144775
10102.280851	4245.050000	1923.228516	46.156906
10102.280851	4245.050000	1922.250000	-99.763695
10102.280851	4245.050000	1921.271484	-11.149119
10102.280851	4245.050000	1920.292969	-10.471396
10102.280851	4245.050000	1919.314453	-144.069763
10102.280851	4245.050000	1918.334961	149.575012
10102.280851	4245.050000	1917.355469	-5.953559
10102.280851	4245.050000	1916.375977	16.714231
10102.280851	4245.050000	1915.396484	39.382156
10102.280851	4245.050000	1914.416992	62.049290
10102.280851	4245.050000	1913.436523	92.031723
10102.280851	4245.050000	1912.457031	19.601675
10102.280851	4245.050000	1911.476563	-86.923660
10102.280851	4245.050000	1910.496094	-22.782215
10102.280851	4245.050000	1909.515625	-22.017456
10102.280851	4245.050000	1908.534180	-9.062820
10102.280851	4245.050000	1907.552734	-249.454636
10102.280851	4245.050000	1906.572266	29.034887
10102.280851	4245.050000	1905.590820	15.209782
10102.280851	4245.050000	1904.608398	-71.642883
10102.280851	4245.050000	1903.626953	24.112637
10102.280851	4245.050000	1902.644531	-1.849004
10102.280851	4245.050000	1901.663086	225.272430
10102.280851	4245.050000	1900.680664	221.193619
10102.280851	4245.050000	1899.698242	-13.955423
10102.280851	4245.050000	1898.714844	20.937742
10102.280851	4245.050000	1897.732422	126.339272
10102.280851	4245.050000	1896.749023	275.466827
10102.280851	4245.050000	1895.765625	-15.392393
10102.280851	4245.050000	1894.782227	-14.519324
10102.280851	4245.050000	1893.798828	-6.350655
10102.280851	4245.050000	1892.814453	159.721161
10102.280851	4245.050000	1891.831055	78.001984
10102.280851	4245.050000	1890.846680	-37.677689
10102.280851	4245.050000	1889.862305	106.474113
10102.280851	4245.050000	1888.877930	-89.260582
10102.280851	4245.050000	1887.892578	37.869316
10102.280851	4245.050000	1886.908203	41.204720
10102.280851	4245.050000	1885.922852	34.839336
10102.280851	4245.050000	1884.937500	62.440075
10102.280851	4245.050000	1883.952148	70.633163
10102.280851	4245.050000	1882.965820	120.047607
10102.280851	4245.050000	1881.980469	-39.037273
10102.280851	4245.050000	1880.994141	32.200756
10102.280851	4245.050000	1880.007813	-175.267746
10102.280851	4245.050000	1879.021484	123.726395
10102.280851	4245.050000	1878.035156	-71.563194
10102.280851	4245.050000	1877.047852	57.766891
10102.280851	4245.050000	1876.061523	51.446583
10102.280851	4245.050000	1875.074219	98.393333
10102.280851	4245.050000	1874.086914	-118.521461
10102.280851	4245.050000	1873.098633	80.912247
10102.280851	4245.050000	1872.111328	127.832047
10102.280851	4245.050000	1871.123047	119.091927
10102.280851	4245.050000	1870.135742	-63.797493
10102.280851	4245.050000	1869.147461	26.654491
10102.280851	4245.050000	1868.158203	-18.329302
10102.280851	4245.050000	1867.169922	115.593285
10102.280851	4245.050000	1866.180664	73.025734
10102.280851	4245.050000	1865.192383	49.804817
10102.280851	4245.050000	1864.203125	231.957840
10102.280851	4245.050000	1863.213867	-83.576965
10102.280851	4245.050000	1862.223633	-114.006088
10102.280851	4245.050000	1861.234375	-45.422943
10102.280851	4245.050000	1860.244141	-10.668406
10102.280851	4245.050000	1859.253906	188.208939
10102.280851	4245.050000	1858.263672	61.205795
10102.280851	4245.050000	1857.273438	170.710495
10102.280851	4245.050000	1856.282227	-18.973236
10102.280851	4245.050000	1855.291992	-22.867006
10102.280851	4245.050000	1854.300781	151.689224
10102.280851	4245.050000	1853.309570	34.433502
10102.280851	4245.050000	1852.317383	204.081131
10102.280851	4245.050000	1851.326172	120.590546
10102.280851	4245.050000	1850.333984	-23.118515
10102.280851	4245.050000	1849.342773	107.877228
10102.280851	4245.050000	1848.350586	65.380806
10102.280851	4245.050000	1847.357422	97.552483
10102.280851	4245.050000	1846.365234	-166.469116
10102.280851	4245.050000	1845.372070	-30.761345
10102.280851	4245.050000	1844.379883	-34.719734
10102.280851	4245.050000	1843.386719	-0.180964
10102.280851	4245.050000	1842.393555	-16.192095
10102.280851	4245.050000	1841.399414	-22.585260
10102.280851	4245.050000	1840.406250	-36.201214
10102.280851	4245.050000	1839.412109	-47.418224
10102.280851	4245.050000	1838.417969	42.338764
10102.280851	4245.050000	1837.423828	120.031288
10102.280851	4245.050000	1836.429688	36.655567
10102.280851	4245.050000	1835.434570	-82.744621
10102.280851	4245.050000	1834.440430	54.953472
10102.280851	4245.050000	1833.445313	58.073124
10102.280851	4245.050000	1832.450195	87.595695
10102.280851	4245.050000	1831.454102	33.053684
10102.280851	4245.050000	1830.458984	141.764771
10102.280851	4245.050000	1829.462891	-138.415634
10102.280851	4245.050000	1828.466797	47.050026
10102.280851	4245.050000	1827.470703	148.454361
10102.280851	4245.050000	1826.474609	-6.872898
10102.280851	4245.050000	1825.478516	-111.791008
10102.280851	4245.050000	1824.481445	164.589874
10102.280851	4245.050000	1823.484375	59.645775
10102.280851	4245.050000	1822.487305	213.606812
10102.280851	4245.050000	1821.490234	151.798309
10102.280851	4245.050000	1820.493164	-34.604774
10102.280851	4245.050000	1819.495117	92.881065
10102.280851	4245.050000	1818.498047	81.376137
10102.280851	4245.050000	1817.500000	89.015274
10102.280851	4245.050000	1816.500977	-47.028580
10102.280851	4245.050000	1815.502930	51.560795
10102.280851	4245.050000	1814.504883	44.782516
10102.280851	4245.050000	1813.505859	95.417847
10102.280851	4245.050000	1812.506836	67.059822
10102.280851	4245.050000	1811.507813	170.256454
10102.280851	4245.050000	1810.508789	94.020607
10102.280851	4245.050000	1809.508789	8.226735
10102.280851	4245.050000	1808.508789	39.589058
10102.280851	4245.050000	1807.508789	23.111656
10102.280851	4245.050000	1806.508789	-84.194557
10102.280851	4245.050000	1805.508789	114.356148
10102.280851	4245.050000	1804.508789	7.027141
10102.280851	4245.050000	1803.507813	102.734756
10102.280851	4245.050000	1802.506836	4.952642
10102.280851	4245.050000	1801.505859	203.241531
10102.280851	4245.050000	1800.504883	119.752007
10102.280851	4245.050000	1799.502930	117.414986
10102.280851	4245.050000	1798.501953	112.668541
10102.280851	4245.050000	1797.500000	67.339607
10102.280851	4245.050000	1796.498047	-13.777216
10102.280851	4245.050000	1795.496094	69.665939
10102.280851	4245.050000	1794.493164	124.437775
10102.280851	4245.050000	1793.491211	86.189026
10102.280851	4245.050000	1792.488281	271.976379
10102.280851	4245.050000	1791.485352	47.781593
10102.280851	4245.050000	1790.482422	-61.990810
10102.280851	4245.050000	1789.478516	-28.821257
10102.280851	4245.050000	1788.475586	-57.615383
10102.280851	4245.050000	1787.471680	8.822428
10102.280851	4245.050000	1786.467773	6.163528
10102.280851	4245.050000	1785.463867	101.071259
10102.280851	4245.050000	1784.459961	-30.175322
10102.280851	4245.050000	1783.455078	93.197136
10102.280851	4245.050000	1782.450195	-104.669685
10102.280851	4245.050000	1781.445313	175.595093
10102.280851	4245.050000	1780.440430	101.388702
10102.280851	4245.050000	1779.435547	96.132347
10102.280851	4245.050000	1778.429688	-13.750378
10102.280851	4245.050000	1777.424805	57.011814
10102.280851	4245.050000	1776.418945	137.219940
10102.280851	4245.050000	1775.413086	119.957336
10102.280851	4245.050000	1774.406250	-163.373993
10102.280851	4245.050000	1773.400391	97.231873
10102.280851	4245.050000	1772.393555	-7.964297
10102.280851	4245.050000	1771.386719	10.297213
10102.280851	4245.050000	1770.379883	147.198853
10102.280851	4245.050000	1769.373047	72.808342
10102.280851	4245.050000	1768.365234	105.182327
10102.280851	4245.050000	1767.358398	128.024384
10102.280851	4245.050000	1766.350586	119.990448
10102.280851	4245.050000	1765.342773	187.809204
10102.280851	4245.050000	1764.334961	236.602081
10102.280851	4245.050000	1763.326172	15.113137
10102.280851	4245.050000	1762.318359	-45.164692
10102.280851	4245.050000	1761.309570	72.259224
10102.280851	4245.050000	1760.300781	-49.671421
10102.280851	4245.050000	1759.291016	-138.430466
10102.280851	4245.050000	1758.282227	33.311253
10102.280851	4245.050000	1757.272461	10.798511
10102.280851	4245.050000	1756.262695	-9.372497
10102.280851	4245.050000	1755.252930	10.665813
10102.280851	4245.050000	1754.243164	-120.784889
10102.280851	4245.050000	1753.233398	-58.215412
10102.280851	4245.050000	1752.222656	-33.553394
10102.280851	4245.050000	1751.211914	62.014816
10102.280851	4245.050000	1750.201172	18.002338
10102.280851	4245.050000	1749.190430	191.470642
10102.280851	4245.050000	1748.179688	102.471405
10102.280851	4245.050000	1747.167969	77.275597
10102.280851	4245.050000	1746.156250	-30.642788
10102.280851	4245.050000	1745.144531	17.357813
10102.280851	4245.050000	1744.132813	32.238785
10102.280851	4245.050000	1743.121094	-210.314835
10102.280851	4245.050000	1742.108398	-143.527863
10102.280851	4245.050000	1741.095703	62.467957
10102.280851	4245.050000	1740.083008	-7.776619
10102.280851	4245.050000	1739.070313	-181.852905
10102.280851	4245.050000	1738.057617	31.004210
10102.280851	4245.050000	1737.043945	-32.227547
10102.280851	4245.050000	1736.030273	24.800707
10102.280851	4245.050000	1735.016602	-243.605347
10102.280851	4245.050000	1734.002930	-75.833900
10102.280851	4245.050000	1732.989258	235.609711
10102.280851	4245.050000	1731.974609	56.752869
10102.280851	4245.050000	1730.959961	113.529106
10102.280851	4245.050000	1729.945313	28.915035
10102.280851	4245.050000	1728.930664	-74.542931
10102.280851	4245.050000	1727.916016	48.049797
10102.280851	4245.050000	1726.900391	-38.967052
10102.280851	4245.050000	1725.885742	-71.846558
10102.280851	4245.050000	1724.870117	-5.912745
10102.280851	4245.050000	1723.853516	-81.214462
10102.280851	4245.050000	1722.837891	26.968067
10102.280851	4245.050000	1721.822266	33.939873
10102.280851	4245.050000	1720.805664	184.312500
10102.280851	4245.050000	1719.789063	99.487206
10102.280851	4245.050000	1718.772461	19.360069
10102.280851	4245.050000	1717.754883	-11.421311
10102.280851	4245.050000	1716.738281	157.501938
10102.280851	4245.050000	1715.720703	-14.319254
10102.280851	4245.050000	1714.703125	-134.436081
10102.280851	4245.050000	1713.685547	-80.762978
10102.280851	4245.050000	1712.667969	38.596169
10102.280851	4245.050000	1711.649414	9.982155
10102.280851	4245.050000	1710.630859	-147.741043
10102.280851	4245.050000	1709.612305	-0.385771
10102.280851	4245.050000	1708.593750	83.533928
10102.280851	4245.050000	1707.575195	-156.312851
10102.280851	4245.050000	1706.555664	-6.801247
10102.280851	4245.050000	1705.536133	-40.272194
10102.280851	4245.050000	1704.516602	-64.386177
10102.280851	4245.050000	1703.497070	68.513718
10102.280851	4245.050000	1702.477539	4.482820
10102.280851	4245.050000	1701.457031	-38.473774
10102.280851	4245.050000	1700.437500	127.040001
10102.280851	4245.050000	1699.416992	25.458458
10102.280851	4245.050000	1698.395508	-62.070850
10102.280851	4245.050000	1697.375000	84.520706
10102.280851	4245.050000	1696.354492	81.218147
10102.280851	4245.050000	1695.333008	12.353095
10102.280851	4245.050000	1694.311523	-110.332970
10102.280851	4245.050000	1693.290039	-34.158676
10102.280851	4245.050000	1692.267578	-2.488301
10102.280851	4245.050000	1691.246094	-1.257729
10102.280851	4245.050000	1690.223633	-42.147392
10102.280851	4245.050000	1689.201172	94.602440
10102.280851	4245.050000	1688.178711	44.299603
10102.280851	4245.050000	1687.155273	106.140762
10102.280851	4245.050000	1686.132813	41.776253
10102.280851	4245.050000	1685.109375	-59.969723
10102.280851	4245.050000	1684.085938	-21.588253
10102.280851	4245.050000	1683.062500	-27.613756
10102.280851	4245.050000	1682.039063	-28.997641
10102.280851	4245.050000	1681.014648	-14.077080
10102.280851	4245.050000	1679.990234	35.811741
10102.280851	4245.050000	1678.965820	99.650047
10102.280851	4245.050000	1677.941406	72.463501
10102.280851	4245.050000	1676.916992	38.262627
10102.280851	4245.050000	1675.891602	-30.933413
10102.280851	4245.050000	1674.866211	58.395309
10102.280851	4245.050000	1673.840820	-6.172311
10102.280851	4245.050000	1672.815430	-17.143311
10102.280851	4245.050000	1671.790039	-65.416321
10102.280851	4245.050000	1670.763672	93.620987
10102.280851	4245.050000	1669.737305	108.171295
10102.280851	4245.050000	1668.710938	-86.882294
10102.280851	4245.050000	1667.684570	92.941490
10102.280851	4245.050000	1666.658203	95.767479
10102.280851	4245.050000	1665.630859	-29.435659
10102.280851	4245.050000	1664.603516	75.735085
10102.280851	4245.050000	1663.576172	-51.791748
10102.280851	4245.050000	1662.548828	146.328888
10102.280851	4245.050000	1661.520508	193.191116
10102.280851	4245.050000	1660.493164	130.742447
10102.280851	4245.050000	1659.464844	-27.016279
10102.280851	4245.050000	1658.436523	156.902573
10102.280851	4245.050000	1657.408203	252.429535
10102.280851	4245.050000	1656.378906	69.109756
10102.280851	4245.050000	1655.350586	176.185944
10102.280851	4245.050000	1654.321289	185.657761
10102.280851	4245.050000	1653.291992	264.759064
10102.280851	4245.050000	1652.261719	55.951935
10102.280851	4245.050000	1651.232422	220.880600
10102.280851	4245.050000	1650.202148	91.017754
10102.280851	4245.050000	1649.171875	313.830719
10102.280851	4245.050000	1648.141602	325.455566
10102.280851	4245.050000	1647.111328	258.205200
10102.280851	4245.050000	1646.080078	490.067535
10102.280851	4245.050000	1645.049805	506.230927
10102.280851	4245.050000	1644.018555	501.503326
10102.280851	4245.050000	1642.987305	714.590454
10102.280851	4245.050000	1641.955078	788.557861
10102.280851	4245.050000	1640.923828	693.384949
10102.280851	4245.050000	1639.891602	681.601868
10102.280851	4245.050000	1638.859375	486.879120
10102.280851	4245.050000	1637.827148	546.875366
10102.280851	4245.050000	1636.794922	616.091980
10102.280851	4245.050000	1635.761719	553.352234
10102.280851	4245.050000	1634.729492	534.587891
10102.280851	4245.050000	1633.696289	552.822998
10102.280851	4245.050000	1632.662109	499.334351
10102.280851	4245.050000	1631.628906	436.607513
10102.280851	4245.050000	1630.594727	255.976501
10102.280851	4245.050000	1629.561523	498.413788
10102.280851	4245.050000	1628.527344	435.680176
10102.280851	4245.050000	1627.493164	366.025970
10102.280851	4245.050000	1626.458008	296.381317
10102.280851	4245.050000	1625.423828	360.721680
10102.280851	4245.050000	1624.388672	344.196442
10102.280851	4245.050000	1623.353516	643.973938
10102.280851	4245.050000	1622.318359	488.877899
10102.280851	4245.050000	1621.282227	435.373993
10102.280851	4245.050000	1620.247070	794.924622
10102.280851	4245.050000	1619.210938	519.890564
10102.280851	4245.050000	1618.174805	673.977722
10102.280851	4245.050000	1617.137695	631.970276
10102.280851	4245.050000	1616.101563	576.143066
10102.280851	4245.050000	1615.064453	679.385193
10102.280851	4245.050000	1614.027344	711.132141
10102.280851	4245.050000	1612.990234	795.860901
10102.280851	4245.050000	1611.953125	774.570923
10102.280851	4245.050000	1610.916016	704.913086
10102.280851	4245.050000	1609.877930	842.539551
10102.280851	4245.050000	1608.839844	655.450439
10102.280851	4245.050000	1607.801758	767.700745
10102.280851	4245.050000	1606.763672	698.074158
10102.280851	4245.050000	1605.724609	589.346985
10102.280851	4245.050000	1604.685547	533.574829
10102.280851	4245.050000	1603.646484	792.962219
10102.280851	4245.050000	1602.607422	587.678650
10102.280851	4245.050000	1601.568359	529.634644
10102.280851	4245.050000	1600.528320	581.956116
10102.280851	4245.050000	1599.489258	615.874084
10102.280851	4245.050000	1598.449219	509.591949
10102.280851	4245.050000	1597.408203	653.785034
10102.280851	4245.050000	1596.368164	611.858154
10102.280851	4245.050000	1595.327148	636.547058
10102.280851	4245.050000	1594.287109	601.531860
10102.280851	4245.050000	1593.246094	759.373596
10102.280851	4245.050000	1592.204102	568.257263
10102.280851	4245.050000	1591.163086	707.690125
10102.280851	4245.050000	1590.121094	668.098450
10102.280851	4245.050000	1589.079102	708.817200
10102.280851	4245.050000	1588.037109	566.039124
10102.280851	4245.050000	1586.995117	510.459015
10102.280851	4245.050000	1585.953125	874.464111
10102.280851	4245.050000	1584.910156	651.519165
10102.280851	4245.050000	1583.867188	524.922974
10102.280851	4245.050000	1582.824219	613.765869
10102.280851	4245.050000	1581.781250	441.421295
10102.280851	4245.050000	1580.737305	633.323853
