#X		#Y		#Wave		#Intensity
9204.132979	4803.828333	1999.946289	25.342377
9204.132979	4803.828333	1998.981445	-73.588470
9204.132979	4803.828333	1998.017578	16.885803
9204.132979	4803.828333	1997.052734	-113.381889
9204.132979	4803.828333	1996.088867	21.350723
9204.132979	4803.828333	1995.124023	128.635956
9204.132979	4803.828333	1994.159180	92.084618
9204.132979	4803.828333	1993.193359	171.791992
9204.132979	4803.828333	1992.228516	110.207764
9204.132979	4803.828333	1991.262695	58.415985
9204.132979	4803.828333	1990.296875	51.060459
9204.132979	4803.828333	1989.331055	28.734903
9204.132979	4803.828333	1988.365234	3.820561
9204.132979	4803.828333	1987.398438	-48.411270
9204.132979	4803.828333	1986.432617	17.966290
9204.132979	4803.828333	1985.465820	232.564606
9204.132979	4803.828333	1984.499023	-2.956060
9204.132979	4803.828333	1983.532227	75.409676
9204.132979	4803.828333	1982.565430	-95.950043
9204.132979	4803.828333	1981.597656	-30.150736
9204.132979	4803.828333	1980.629883	57.761478
9204.132979	4803.828333	1979.662109	83.801979
9204.132979	4803.828333	1978.694336	85.049065
9204.132979	4803.828333	1977.726563	-61.926365
9204.132979	4803.828333	1976.758789	-216.336670
9204.132979	4803.828333	1975.790039	-77.076591
9204.132979	4803.828333	1974.821289	34.910446
9204.132979	4803.828333	1973.852539	-129.534378
9204.132979	4803.828333	1972.883789	4.472502
9204.132979	4803.828333	1971.915039	150.690598
9204.132979	4803.828333	1970.945313	-8.963499
9204.132979	4803.828333	1969.975586	188.840820
9204.132979	4803.828333	1969.005859	162.211014
9204.132979	4803.828333	1968.036133	83.779396
9204.132979	4803.828333	1967.066406	108.802742
9204.132979	4803.828333	1966.096680	121.444008
9204.132979	4803.828333	1965.125977	13.340301
9204.132979	4803.828333	1964.155273	117.002922
9204.132979	4803.828333	1963.184570	151.639587
9204.132979	4803.828333	1962.213867	28.673803
9204.132979	4803.828333	1961.242188	6.614825
9204.132979	4803.828333	1960.271484	-25.320822
9204.132979	4803.828333	1959.299805	166.594147
9204.132979	4803.828333	1958.328125	48.467209
9204.132979	4803.828333	1957.356445	168.900314
9204.132979	4803.828333	1956.384766	104.838623
9204.132979	4803.828333	1955.412109	129.267929
9204.132979	4803.828333	1954.439453	55.338177
9204.132979	4803.828333	1953.467773	37.928833
9204.132979	4803.828333	1952.495117	204.773209
9204.132979	4803.828333	1951.521484	192.196518
9204.132979	4803.828333	1950.548828	15.039997
9204.132979	4803.828333	1949.575195	61.388721
9204.132979	4803.828333	1948.601563	90.510681
9204.132979	4803.828333	1947.627930	-0.682083
9204.132979	4803.828333	1946.654297	40.669701
9204.132979	4803.828333	1945.680664	81.987755
9204.132979	4803.828333	1944.706055	42.309406
9204.132979	4803.828333	1943.732422	29.612608
9204.132979	4803.828333	1942.757813	19.356377
9204.132979	4803.828333	1941.783203	48.322235
9204.132979	4803.828333	1940.807617	30.682547
9204.132979	4803.828333	1939.833008	-92.357712
9204.132979	4803.828333	1938.857422	-48.721134
9204.132979	4803.828333	1937.881836	78.195007
9204.132979	4803.828333	1936.906250	-115.859299
9204.132979	4803.828333	1935.930664	55.092003
9204.132979	4803.828333	1934.955078	-53.191891
9204.132979	4803.828333	1933.978516	-36.577976
9204.132979	4803.828333	1933.001953	-93.411911
9204.132979	4803.828333	1932.025391	-49.884766
9204.132979	4803.828333	1931.048828	79.267403
9204.132979	4803.828333	1930.072266	147.204529
9204.132979	4803.828333	1929.094727	-19.711063
9204.132979	4803.828333	1928.118164	-32.490002
9204.132979	4803.828333	1927.140625	-130.847870
9204.132979	4803.828333	1926.163086	-229.170059
9204.132979	4803.828333	1925.184570	78.289421
9204.132979	4803.828333	1924.207031	-200.874695
9204.132979	4803.828333	1923.228516	99.136543
9204.132979	4803.828333	1922.250000	-109.082390
9204.132979	4803.828333	1921.271484	-107.172600
9204.132979	4803.828333	1920.292969	70.561180
9204.132979	4803.828333	1919.314453	50.468998
9204.132979	4803.828333	1918.334961	-89.225777
9204.132979	4803.828333	1917.355469	37.161522
9204.132979	4803.828333	1916.375977	-51.227642
9204.132979	4803.828333	1915.396484	89.752579
9204.132979	4803.828333	1914.416992	45.302692
9204.132979	4803.828333	1913.436523	-72.290550
9204.132979	4803.828333	1912.457031	78.384079
9204.132979	4803.828333	1911.476563	48.603382
9204.132979	4803.828333	1910.496094	-98.156685
9204.132979	4803.828333	1909.515625	113.378502
9204.132979	4803.828333	1908.534180	17.838886
9204.132979	4803.828333	1907.552734	-11.884615
9204.132979	4803.828333	1906.572266	7.122798
9204.132979	4803.828333	1905.590820	-5.528131
9204.132979	4803.828333	1904.608398	-8.430538
9204.132979	4803.828333	1903.626953	81.178055
9204.132979	4803.828333	1902.644531	88.009949
9204.132979	4803.828333	1901.663086	-124.151443
9204.132979	4803.828333	1900.680664	-83.209076
9204.132979	4803.828333	1899.698242	96.372795
9204.132979	4803.828333	1898.714844	27.832890
9204.132979	4803.828333	1897.732422	17.683493
9204.132979	4803.828333	1896.749023	51.302914
9204.132979	4803.828333	1895.765625	116.514381
9204.132979	4803.828333	1894.782227	-12.703155
9204.132979	4803.828333	1893.798828	-64.114914
9204.132979	4803.828333	1892.814453	66.690147
9204.132979	4803.828333	1891.831055	12.867680
9204.132979	4803.828333	1890.846680	133.909775
9204.132979	4803.828333	1889.862305	138.375366
9204.132979	4803.828333	1888.877930	14.192554
9204.132979	4803.828333	1887.892578	-20.141733
9204.132979	4803.828333	1886.908203	-25.337204
9204.132979	4803.828333	1885.922852	56.812103
9204.132979	4803.828333	1884.937500	-30.856155
9204.132979	4803.828333	1883.952148	92.502052
9204.132979	4803.828333	1882.965820	4.869496
9204.132979	4803.828333	1881.980469	50.609089
9204.132979	4803.828333	1880.994141	86.640182
9204.132979	4803.828333	1880.007813	66.925835
9204.132979	4803.828333	1879.021484	-3.657250
9204.132979	4803.828333	1878.035156	51.756378
9204.132979	4803.828333	1877.047852	-76.918404
9204.132979	4803.828333	1876.061523	34.190472
9204.132979	4803.828333	1875.074219	58.100998
9204.132979	4803.828333	1874.086914	159.465118
9204.132979	4803.828333	1873.098633	52.659595
9204.132979	4803.828333	1872.111328	-56.522175
9204.132979	4803.828333	1871.123047	15.781064
9204.132979	4803.828333	1870.135742	75.966682
9204.132979	4803.828333	1869.147461	-4.134350
9204.132979	4803.828333	1868.158203	10.091901
9204.132979	4803.828333	1867.169922	65.411423
9204.132979	4803.828333	1866.180664	94.122475
9204.132979	4803.828333	1865.192383	64.827446
9204.132979	4803.828333	1864.203125	28.293352
9204.132979	4803.828333	1863.213867	-15.474462
9204.132979	4803.828333	1862.223633	-160.665192
9204.132979	4803.828333	1861.234375	-165.748718
9204.132979	4803.828333	1860.244141	-93.576729
9204.132979	4803.828333	1859.253906	-43.159016
9204.132979	4803.828333	1858.263672	-69.989609
9204.132979	4803.828333	1857.273438	-137.832581
9204.132979	4803.828333	1856.282227	139.324982
9204.132979	4803.828333	1855.291992	122.112793
9204.132979	4803.828333	1854.300781	10.851511
9204.132979	4803.828333	1853.309570	90.103104
9204.132979	4803.828333	1852.317383	-64.513092
9204.132979	4803.828333	1851.326172	140.041840
9204.132979	4803.828333	1850.333984	96.310661
9204.132979	4803.828333	1849.342773	-22.096886
9204.132979	4803.828333	1848.350586	-183.826523
9204.132979	4803.828333	1847.357422	-22.782488
9204.132979	4803.828333	1846.365234	-119.452194
9204.132979	4803.828333	1845.372070	106.505409
9204.132979	4803.828333	1844.379883	94.076576
9204.132979	4803.828333	1843.386719	120.147247
9204.132979	4803.828333	1842.393555	69.203758
9204.132979	4803.828333	1841.399414	-39.467651
9204.132979	4803.828333	1840.406250	70.766296
9204.132979	4803.828333	1839.412109	-35.480488
9204.132979	4803.828333	1838.417969	12.176791
9204.132979	4803.828333	1837.423828	189.611740
9204.132979	4803.828333	1836.429688	35.300987
9204.132979	4803.828333	1835.434570	20.404741
9204.132979	4803.828333	1834.440430	-56.962143
9204.132979	4803.828333	1833.445313	-2.202484
9204.132979	4803.828333	1832.450195	-17.122335
9204.132979	4803.828333	1831.454102	66.393539
9204.132979	4803.828333	1830.458984	41.835102
9204.132979	4803.828333	1829.462891	48.472286
9204.132979	4803.828333	1828.466797	-50.497974
9204.132979	4803.828333	1827.470703	-60.671787
9204.132979	4803.828333	1826.474609	121.051521
9204.132979	4803.828333	1825.478516	31.669102
9204.132979	4803.828333	1824.481445	66.995819
9204.132979	4803.828333	1823.484375	68.726738
9204.132979	4803.828333	1822.487305	63.248173
9204.132979	4803.828333	1821.490234	-93.232254
9204.132979	4803.828333	1820.493164	-41.207111
9204.132979	4803.828333	1819.495117	-27.553511
9204.132979	4803.828333	1818.498047	91.468903
9204.132979	4803.828333	1817.500000	-81.740883
9204.132979	4803.828333	1816.500977	85.090141
9204.132979	4803.828333	1815.502930	10.056456
9204.132979	4803.828333	1814.504883	2.046556
9204.132979	4803.828333	1813.505859	51.448380
9204.132979	4803.828333	1812.506836	21.856628
9204.132979	4803.828333	1811.507813	97.505325
9204.132979	4803.828333	1810.508789	-104.326103
9204.132979	4803.828333	1809.508789	-88.508087
9204.132979	4803.828333	1808.508789	-32.077171
9204.132979	4803.828333	1807.508789	115.139648
9204.132979	4803.828333	1806.508789	128.447205
9204.132979	4803.828333	1805.508789	117.831497
9204.132979	4803.828333	1804.508789	-2.695101
9204.132979	4803.828333	1803.507813	34.436329
9204.132979	4803.828333	1802.506836	78.692810
9204.132979	4803.828333	1801.505859	113.356750
9204.132979	4803.828333	1800.504883	42.948830
9204.132979	4803.828333	1799.502930	96.645805
9204.132979	4803.828333	1798.501953	147.911621
9204.132979	4803.828333	1797.500000	-32.289104
9204.132979	4803.828333	1796.498047	-2.541908
9204.132979	4803.828333	1795.496094	-18.144918
9204.132979	4803.828333	1794.493164	-19.465921
9204.132979	4803.828333	1793.491211	67.394356
9204.132979	4803.828333	1792.488281	-22.188057
9204.132979	4803.828333	1791.485352	9.770781
9204.132979	4803.828333	1790.482422	213.235947
9204.132979	4803.828333	1789.478516	14.009495
9204.132979	4803.828333	1788.475586	0.604252
9204.132979	4803.828333	1787.471680	3.840832
9204.132979	4803.828333	1786.467773	140.370834
9204.132979	4803.828333	1785.463867	53.066574
9204.132979	4803.828333	1784.459961	39.542110
9204.132979	4803.828333	1783.455078	144.961639
9204.132979	4803.828333	1782.450195	83.781105
9204.132979	4803.828333	1781.445313	165.305466
9204.132979	4803.828333	1780.440430	-5.310203
9204.132979	4803.828333	1779.435547	126.068207
9204.132979	4803.828333	1778.429688	-51.672081
9204.132979	4803.828333	1777.424805	89.108452
9204.132979	4803.828333	1776.418945	27.816767
9204.132979	4803.828333	1775.413086	16.408543
9204.132979	4803.828333	1774.406250	31.099051
9204.132979	4803.828333	1773.400391	-70.617447
9204.132979	4803.828333	1772.393555	-17.989964
9204.132979	4803.828333	1771.386719	67.821609
9204.132979	4803.828333	1770.379883	-3.088631
9204.132979	4803.828333	1769.373047	84.994041
9204.132979	4803.828333	1768.365234	9.292569
9204.132979	4803.828333	1767.358398	-4.732570
9204.132979	4803.828333	1766.350586	-51.993797
9204.132979	4803.828333	1765.342773	12.181243
9204.132979	4803.828333	1764.334961	-146.563507
9204.132979	4803.828333	1763.326172	76.352699
9204.132979	4803.828333	1762.318359	5.276897
9204.132979	4803.828333	1761.309570	-75.287590
9204.132979	4803.828333	1760.300781	126.064201
9204.132979	4803.828333	1759.291016	21.749809
9204.132979	4803.828333	1758.282227	-106.237434
9204.132979	4803.828333	1757.272461	59.382904
9204.132979	4803.828333	1756.262695	61.564278
9204.132979	4803.828333	1755.252930	42.409191
9204.132979	4803.828333	1754.243164	-111.656105
9204.132979	4803.828333	1753.233398	51.335152
9204.132979	4803.828333	1752.222656	72.298386
9204.132979	4803.828333	1751.211914	57.743385
9204.132979	4803.828333	1750.201172	-108.172615
9204.132979	4803.828333	1749.190430	-37.648834
9204.132979	4803.828333	1748.179688	143.905075
9204.132979	4803.828333	1747.167969	-64.578033
9204.132979	4803.828333	1746.156250	-27.289814
9204.132979	4803.828333	1745.144531	-42.021263
9204.132979	4803.828333	1744.132813	-210.302612
9204.132979	4803.828333	1743.121094	-19.620140
9204.132979	4803.828333	1742.108398	52.902729
9204.132979	4803.828333	1741.095703	113.560852
9204.132979	4803.828333	1740.083008	-28.803923
9204.132979	4803.828333	1739.070313	130.880753
9204.132979	4803.828333	1738.057617	52.195030
9204.132979	4803.828333	1737.043945	-111.412369
9204.132979	4803.828333	1736.030273	-114.630295
9204.132979	4803.828333	1735.016602	-94.303368
9204.132979	4803.828333	1734.002930	-0.940777
9204.132979	4803.828333	1732.989258	-103.270920
9204.132979	4803.828333	1731.974609	114.877945
9204.132979	4803.828333	1730.959961	-112.376205
9204.132979	4803.828333	1729.945313	-33.355022
9204.132979	4803.828333	1728.930664	123.321022
9204.132979	4803.828333	1727.916016	-9.719505
9204.132979	4803.828333	1726.900391	-8.557434
9204.132979	4803.828333	1725.885742	96.140182
9204.132979	4803.828333	1724.870117	40.735966
9204.132979	4803.828333	1723.853516	15.901858
9204.132979	4803.828333	1722.837891	-30.122746
9204.132979	4803.828333	1721.822266	-85.570549
9204.132979	4803.828333	1720.805664	-54.028862
9204.132979	4803.828333	1719.789063	15.085541
9204.132979	4803.828333	1718.772461	23.024803
9204.132979	4803.828333	1717.754883	-171.188583
9204.132979	4803.828333	1716.738281	83.438072
9204.132979	4803.828333	1715.720703	-117.824379
9204.132979	4803.828333	1714.703125	33.279324
9204.132979	4803.828333	1713.685547	134.977921
9204.132979	4803.828333	1712.667969	72.253075
9204.132979	4803.828333	1711.649414	11.863971
9204.132979	4803.828333	1710.630859	50.041100
9204.132979	4803.828333	1709.612305	179.688995
9204.132979	4803.828333	1708.593750	-5.121758
9204.132979	4803.828333	1707.575195	-93.719543
9204.132979	4803.828333	1706.555664	-60.367748
9204.132979	4803.828333	1705.536133	-41.127216
9204.132979	4803.828333	1704.516602	71.848999
9204.132979	4803.828333	1703.497070	44.121239
9204.132979	4803.828333	1702.477539	-58.613934
9204.132979	4803.828333	1701.457031	77.638771
9204.132979	4803.828333	1700.437500	-78.998085
9204.132979	4803.828333	1699.416992	216.409134
9204.132979	4803.828333	1698.395508	57.397755
9204.132979	4803.828333	1697.375000	-31.339663
9204.132979	4803.828333	1696.354492	34.415771
9204.132979	4803.828333	1695.333008	191.384323
9204.132979	4803.828333	1694.311523	39.410778
9204.132979	4803.828333	1693.290039	-40.010418
9204.132979	4803.828333	1692.267578	37.274551
9204.132979	4803.828333	1691.246094	126.201698
9204.132979	4803.828333	1690.223633	-79.525688
9204.132979	4803.828333	1689.201172	-21.054897
9204.132979	4803.828333	1688.178711	91.122711
9204.132979	4803.828333	1687.155273	65.363998
9204.132979	4803.828333	1686.132813	128.372299
9204.132979	4803.828333	1685.109375	81.546516
9204.132979	4803.828333	1684.085938	6.691140
9204.132979	4803.828333	1683.062500	83.607811
9204.132979	4803.828333	1682.039063	172.144562
9204.132979	4803.828333	1681.014648	188.266037
9204.132979	4803.828333	1679.990234	125.020035
9204.132979	4803.828333	1678.965820	10.448906
9204.132979	4803.828333	1677.941406	-1.464534
9204.132979	4803.828333	1676.916992	68.232254
9204.132979	4803.828333	1675.891602	-23.013229
9204.132979	4803.828333	1674.866211	146.859100
9204.132979	4803.828333	1673.840820	81.232956
9204.132979	4803.828333	1672.815430	76.202484
9204.132979	4803.828333	1671.790039	-22.042467
9204.132979	4803.828333	1670.763672	56.766853
9204.132979	4803.828333	1669.737305	26.063181
9204.132979	4803.828333	1668.710938	25.624762
9204.132979	4803.828333	1667.684570	99.669304
9204.132979	4803.828333	1666.658203	6.075648
9204.132979	4803.828333	1665.630859	107.983086
9204.132979	4803.828333	1664.603516	149.338104
9204.132979	4803.828333	1663.576172	132.503952
9204.132979	4803.828333	1662.548828	124.963951
9204.132979	4803.828333	1661.520508	61.596134
9204.132979	4803.828333	1660.493164	272.591553
9204.132979	4803.828333	1659.464844	137.130630
9204.132979	4803.828333	1658.436523	220.172150
9204.132979	4803.828333	1657.408203	240.430435
9204.132979	4803.828333	1656.378906	12.081806
9204.132979	4803.828333	1655.350586	167.065475
9204.132979	4803.828333	1654.321289	173.345963
9204.132979	4803.828333	1653.291992	195.865036
9204.132979	4803.828333	1652.261719	137.110504
9204.132979	4803.828333	1651.232422	171.211121
9204.132979	4803.828333	1650.202148	196.000961
9204.132979	4803.828333	1649.171875	281.092743
9204.132979	4803.828333	1648.141602	257.121704
9204.132979	4803.828333	1647.111328	300.405701
9204.132979	4803.828333	1646.080078	288.010651
9204.132979	4803.828333	1645.049805	331.257263
9204.132979	4803.828333	1644.018555	274.807190
9204.132979	4803.828333	1642.987305	431.569153
9204.132979	4803.828333	1641.955078	298.646118
9204.132979	4803.828333	1640.923828	341.823700
9204.132979	4803.828333	1639.891602	227.486191
9204.132979	4803.828333	1638.859375	296.116516
9204.132979	4803.828333	1637.827148	274.427032
9204.132979	4803.828333	1636.794922	338.384064
9204.132979	4803.828333	1635.761719	397.677551
9204.132979	4803.828333	1634.729492	362.088257
9204.132979	4803.828333	1633.696289	351.950623
9204.132979	4803.828333	1632.662109	406.567932
9204.132979	4803.828333	1631.628906	421.858612
9204.132979	4803.828333	1630.594727	571.229370
9204.132979	4803.828333	1629.561523	392.314545
9204.132979	4803.828333	1628.527344	433.012054
9204.132979	4803.828333	1627.493164	503.733551
9204.132979	4803.828333	1626.458008	301.823273
9204.132979	4803.828333	1625.423828	571.180115
9204.132979	4803.828333	1624.388672	364.719666
9204.132979	4803.828333	1623.353516	391.532257
9204.132979	4803.828333	1622.318359	508.364471
9204.132979	4803.828333	1621.282227	470.517639
9204.132979	4803.828333	1620.247070	668.056580
9204.132979	4803.828333	1619.210938	413.342285
9204.132979	4803.828333	1618.174805	578.527527
9204.132979	4803.828333	1617.137695	443.853119
9204.132979	4803.828333	1616.101563	754.236389
9204.132979	4803.828333	1615.064453	665.696594
9204.132979	4803.828333	1614.027344	648.646240
9204.132979	4803.828333	1612.990234	544.045776
9204.132979	4803.828333	1611.953125	586.941589
9204.132979	4803.828333	1610.916016	772.641785
9204.132979	4803.828333	1609.877930	631.249573
9204.132979	4803.828333	1608.839844	959.638306
9204.132979	4803.828333	1607.801758	806.774414
9204.132979	4803.828333	1606.763672	723.028442
9204.132979	4803.828333	1605.724609	701.452820
9204.132979	4803.828333	1604.685547	762.723633
9204.132979	4803.828333	1603.646484	695.166626
9204.132979	4803.828333	1602.607422	770.238342
9204.132979	4803.828333	1601.568359	711.928467
9204.132979	4803.828333	1600.528320	644.454590
9204.132979	4803.828333	1599.489258	809.173157
9204.132979	4803.828333	1598.449219	943.962097
9204.132979	4803.828333	1597.408203	812.187195
9204.132979	4803.828333	1596.368164	636.838623
9204.132979	4803.828333	1595.327148	523.579529
9204.132979	4803.828333	1594.287109	662.974182
9204.132979	4803.828333	1593.246094	607.182007
9204.132979	4803.828333	1592.204102	686.851074
9204.132979	4803.828333	1591.163086	706.843201
9204.132979	4803.828333	1590.121094	623.590515
9204.132979	4803.828333	1589.079102	572.506042
9204.132979	4803.828333	1588.037109	670.541565
9204.132979	4803.828333	1586.995117	775.437683
9204.132979	4803.828333	1585.953125	630.413635
9204.132979	4803.828333	1584.910156	540.474365
9204.132979	4803.828333	1583.867188	576.639343
9204.132979	4803.828333	1582.824219	555.528198
9204.132979	4803.828333	1581.781250	710.844543
9204.132979	4803.828333	1580.737305	726.402893
9204.132979	4803.828333	1579.693359	604.579102
9204.132979	4803.828333	1578.649414	688.884399
9204.132979	4803.828333	1577.605469	505.358276
9204.132979	4803.828333	1576.561523	633.182861
9204.132979	4803.828333	1575.516602	539.023376
9204.132979	4803.828333	1574.472656	582.196106
9204.132979	4803.828333	1573.427734	668.830139
9204.132979	4803.828333	1572.381836	668.552917
9204.132979	4803.828333	1571.336914	670.593628
