#X		#Y		#Wave		#Intensity
9681.334043	4781.793333	1999.946289	32.288208
9681.334043	4781.793333	1998.981445	-191.467987
9681.334043	4781.793333	1998.017578	37.670452
9681.334043	4781.793333	1997.052734	46.260571
9681.334043	4781.793333	1996.088867	32.640556
9681.334043	4781.793333	1995.124023	-32.910912
9681.334043	4781.793333	1994.159180	99.786140
9681.334043	4781.793333	1993.193359	-10.160681
9681.334043	4781.793333	1992.228516	70.654610
9681.334043	4781.793333	1991.262695	-88.592987
9681.334043	4781.793333	1990.296875	-34.863365
9681.334043	4781.793333	1989.331055	73.359558
9681.334043	4781.793333	1988.365234	8.437097
9681.334043	4781.793333	1987.398438	69.757309
9681.334043	4781.793333	1986.432617	9.946627
9681.334043	4781.793333	1985.465820	123.305664
9681.334043	4781.793333	1984.499023	78.471909
9681.334043	4781.793333	1983.532227	182.020218
9681.334043	4781.793333	1982.565430	11.286203
9681.334043	4781.793333	1981.597656	-6.137872
9681.334043	4781.793333	1980.629883	8.617734
9681.334043	4781.793333	1979.662109	38.244690
9681.334043	4781.793333	1978.694336	16.059202
9681.334043	4781.793333	1977.726563	117.382393
9681.334043	4781.793333	1976.758789	-67.621811
9681.334043	4781.793333	1975.790039	120.162758
9681.334043	4781.793333	1974.821289	-148.571075
9681.334043	4781.793333	1973.852539	-2.683755
9681.334043	4781.793333	1972.883789	-34.402836
9681.334043	4781.793333	1971.915039	79.440613
9681.334043	4781.793333	1970.945313	67.531975
9681.334043	4781.793333	1969.975586	139.489716
9681.334043	4781.793333	1969.005859	41.389595
9681.334043	4781.793333	1968.036133	81.369865
9681.334043	4781.793333	1967.066406	-11.677274
9681.334043	4781.793333	1966.096680	82.568634
9681.334043	4781.793333	1965.125977	-57.168064
9681.334043	4781.793333	1964.155273	-19.517555
9681.334043	4781.793333	1963.184570	-11.391747
9681.334043	4781.793333	1962.213867	-77.085335
9681.334043	4781.793333	1961.242188	9.866967
9681.334043	4781.793333	1960.271484	96.817123
9681.334043	4781.793333	1959.299805	-47.498814
9681.334043	4781.793333	1958.328125	24.726412
9681.334043	4781.793333	1957.356445	96.951134
9681.334043	4781.793333	1956.384766	65.902267
9681.334043	4781.793333	1955.412109	15.221172
9681.334043	4781.793333	1954.439453	-64.913361
9681.334043	4781.793333	1953.467773	31.943991
9681.334043	4781.793333	1952.495117	-92.347160
9681.334043	4781.793333	1951.521484	29.084805
9681.334043	4781.793333	1950.548828	-33.717072
9681.334043	4781.793333	1949.575195	50.861412
9681.334043	4781.793333	1948.601563	-2.065922
9681.334043	4781.793333	1947.627930	-18.136242
9681.334043	4781.793333	1946.654297	140.069458
9681.334043	4781.793333	1945.680664	133.824188
9681.334043	4781.793333	1944.706055	-2.434871
9681.334043	4781.793333	1943.732422	118.926537
9681.334043	4781.793333	1942.757813	112.726555
9681.334043	4781.793333	1941.783203	23.171316
9681.334043	4781.793333	1940.807617	56.236675
9681.334043	4781.793333	1939.833008	106.457733
9681.334043	4781.793333	1938.857422	107.655243
9681.334043	4781.793333	1937.881836	-38.150700
9681.334043	4781.793333	1936.906250	173.764740
9681.334043	4781.793333	1935.930664	20.666441
9681.334043	4781.793333	1934.955078	-2.582061
9681.334043	4781.793333	1933.978516	-35.610218
9681.334043	4781.793333	1933.001953	-68.622498
9681.334043	4781.793333	1932.025391	-8.615194
9681.334043	4781.793333	1931.048828	92.971085
9681.334043	4781.793333	1930.072266	55.069283
9681.334043	4781.793333	1929.094727	-43.969013
9681.334043	4781.793333	1928.118164	25.779036
9681.334043	4781.793333	1927.140625	-41.428028
9681.334043	4781.793333	1926.163086	155.418274
9681.334043	4781.793333	1925.184570	-41.334778
9681.334043	4781.793333	1924.207031	-20.517742
9681.334043	4781.793333	1923.228516	178.653366
9681.334043	4781.793333	1922.250000	-57.085850
9681.334043	4781.793333	1921.271484	-53.381931
9681.334043	4781.793333	1920.292969	-113.174377
9681.334043	4781.793333	1919.314453	-99.702950
9681.334043	4781.793333	1918.334961	116.366478
9681.334043	4781.793333	1917.355469	-31.299765
9681.334043	4781.793333	1916.375977	96.820305
9681.334043	4781.793333	1915.396484	68.745735
9681.334043	4781.793333	1914.416992	4.086923
9681.334043	4781.793333	1913.436523	46.751259
9681.334043	4781.793333	1912.457031	91.831299
9681.334043	4781.793333	1911.476563	44.246788
9681.334043	4781.793333	1910.496094	77.106560
9681.334043	4781.793333	1909.515625	134.314987
9681.334043	4781.793333	1908.534180	3.881529
9681.334043	4781.793333	1907.552734	56.191437
9681.334043	4781.793333	1906.572266	147.442001
9681.334043	4781.793333	1905.590820	-21.912876
9681.334043	4781.793333	1904.608398	-25.656303
9681.334043	4781.793333	1903.626953	104.473946
9681.334043	4781.793333	1902.644531	64.179283
9681.334043	4781.793333	1901.663086	89.587715
9681.334043	4781.793333	1900.680664	-23.698961
9681.334043	4781.793333	1899.698242	101.421432
9681.334043	4781.793333	1898.714844	7.604825
9681.334043	4781.793333	1897.732422	-76.462540
9681.334043	4781.793333	1896.749023	-9.787340
9681.334043	4781.793333	1895.765625	59.280056
9681.334043	4781.793333	1894.782227	-56.383186
9681.334043	4781.793333	1893.798828	-6.798330
9681.334043	4781.793333	1892.814453	50.041111
9681.334043	4781.793333	1891.831055	162.706833
9681.334043	4781.793333	1890.846680	49.480618
9681.334043	4781.793333	1889.862305	-58.862782
9681.334043	4781.793333	1888.877930	-77.366066
9681.334043	4781.793333	1887.892578	-71.609711
9681.334043	4781.793333	1886.908203	135.530411
9681.334043	4781.793333	1885.922852	78.135765
9681.334043	4781.793333	1884.937500	6.192656
9681.334043	4781.793333	1883.952148	-14.811816
9681.334043	4781.793333	1882.965820	36.914883
9681.334043	4781.793333	1881.980469	-42.302250
9681.334043	4781.793333	1880.994141	-34.251980
9681.334043	4781.793333	1880.007813	63.441734
9681.334043	4781.793333	1879.021484	49.628830
9681.334043	4781.793333	1878.035156	98.786194
9681.334043	4781.793333	1877.047852	38.918701
9681.334043	4781.793333	1876.061523	46.858421
9681.334043	4781.793333	1875.074219	151.618652
9681.334043	4781.793333	1874.086914	-12.365808
9681.334043	4781.793333	1873.098633	39.085629
9681.334043	4781.793333	1872.111328	160.670914
9681.334043	4781.793333	1871.123047	-41.987370
9681.334043	4781.793333	1870.135742	-2.708297
9681.334043	4781.793333	1869.147461	14.770776
9681.334043	4781.793333	1868.158203	90.252914
9681.334043	4781.793333	1867.169922	-63.968025
9681.334043	4781.793333	1866.180664	81.554581
9681.334043	4781.793333	1865.192383	-14.648499
9681.334043	4781.793333	1864.203125	60.704739
9681.334043	4781.793333	1863.213867	-47.576653
9681.334043	4781.793333	1862.223633	73.602829
9681.334043	4781.793333	1861.234375	-104.706367
9681.334043	4781.793333	1860.244141	139.525681
9681.334043	4781.793333	1859.253906	57.782444
9681.334043	4781.793333	1858.263672	-45.670521
9681.334043	4781.793333	1857.273438	51.166245
9681.334043	4781.793333	1856.282227	77.983841
9681.334043	4781.793333	1855.291992	-3.766627
9681.334043	4781.793333	1854.300781	-32.454365
9681.334043	4781.793333	1853.309570	25.647387
9681.334043	4781.793333	1852.317383	-29.594053
9681.334043	4781.793333	1851.326172	-186.061401
9681.334043	4781.793333	1850.333984	-48.505352
9681.334043	4781.793333	1849.342773	-2.572205
9681.334043	4781.793333	1848.350586	132.447723
9681.334043	4781.793333	1847.357422	74.725739
9681.334043	4781.793333	1846.365234	33.861755
9681.334043	4781.793333	1845.372070	91.696701
9681.334043	4781.793333	1844.379883	-14.186020
9681.334043	4781.793333	1843.386719	38.781494
9681.334043	4781.793333	1842.393555	-18.972088
9681.334043	4781.793333	1841.399414	84.452110
9681.334043	4781.793333	1840.406250	67.558563
9681.334043	4781.793333	1839.412109	9.768050
9681.334043	4781.793333	1838.417969	-74.468697
9681.334043	4781.793333	1837.423828	108.131546
9681.334043	4781.793333	1836.429688	100.774826
9681.334043	4781.793333	1835.434570	-48.374939
9681.334043	4781.793333	1834.440430	66.785118
9681.334043	4781.793333	1833.445313	54.572044
9681.334043	4781.793333	1832.450195	3.917665
9681.334043	4781.793333	1831.454102	32.496567
9681.334043	4781.793333	1830.458984	104.257965
9681.334043	4781.793333	1829.462891	19.955294
9681.334043	4781.793333	1828.466797	-21.140181
9681.334043	4781.793333	1827.470703	81.717667
9681.334043	4781.793333	1826.474609	64.572815
9681.334043	4781.793333	1825.478516	45.015141
9681.334043	4781.793333	1824.481445	30.238153
9681.334043	4781.793333	1823.484375	22.638720
9681.334043	4781.793333	1822.487305	96.521568
9681.334043	4781.793333	1821.490234	172.752457
9681.334043	4781.793333	1820.493164	52.449608
9681.334043	4781.793333	1819.495117	-192.406952
9681.334043	4781.793333	1818.498047	-109.040825
9681.334043	4781.793333	1817.500000	113.169601
9681.334043	4781.793333	1816.500977	-155.566681
9681.334043	4781.793333	1815.502930	164.677216
9681.334043	4781.793333	1814.504883	61.141052
9681.334043	4781.793333	1813.505859	-44.771389
9681.334043	4781.793333	1812.506836	76.627022
9681.334043	4781.793333	1811.507813	80.746986
9681.334043	4781.793333	1810.508789	92.019722
9681.334043	4781.793333	1809.508789	17.183897
9681.334043	4781.793333	1808.508789	28.422323
9681.334043	4781.793333	1807.508789	25.295130
9681.334043	4781.793333	1806.508789	72.335098
9681.334043	4781.793333	1805.508789	-57.476250
9681.334043	4781.793333	1804.508789	132.857239
9681.334043	4781.793333	1803.507813	115.299736
9681.334043	4781.793333	1802.506836	140.713348
9681.334043	4781.793333	1801.505859	68.207062
9681.334043	4781.793333	1800.504883	122.226250
9681.334043	4781.793333	1799.502930	-33.823586
9681.334043	4781.793333	1798.501953	72.652069
9681.334043	4781.793333	1797.500000	133.736053
9681.334043	4781.793333	1796.498047	63.585075
9681.334043	4781.793333	1795.496094	50.678699
9681.334043	4781.793333	1794.493164	-7.548862
9681.334043	4781.793333	1793.491211	51.042995
9681.334043	4781.793333	1792.488281	-76.321930
9681.334043	4781.793333	1791.485352	34.647408
9681.334043	4781.793333	1790.482422	-4.548404
9681.334043	4781.793333	1789.478516	34.860703
9681.334043	4781.793333	1788.475586	31.367558
9681.334043	4781.793333	1787.471680	-48.345226
9681.334043	4781.793333	1786.467773	10.039867
9681.334043	4781.793333	1785.463867	46.961411
9681.334043	4781.793333	1784.459961	76.710510
9681.334043	4781.793333	1783.455078	27.905783
9681.334043	4781.793333	1782.450195	43.334045
9681.334043	4781.793333	1781.445313	-29.267782
9681.334043	4781.793333	1780.440430	-47.164249
9681.334043	4781.793333	1779.435547	68.075409
9681.334043	4781.793333	1778.429688	154.724991
9681.334043	4781.793333	1777.424805	-105.676872
9681.334043	4781.793333	1776.418945	-95.104195
9681.334043	4781.793333	1775.413086	-75.049789
9681.334043	4781.793333	1774.406250	77.998352
9681.334043	4781.793333	1773.400391	-8.894651
9681.334043	4781.793333	1772.393555	37.196014
9681.334043	4781.793333	1771.386719	4.908924
9681.334043	4781.793333	1770.379883	134.020065
9681.334043	4781.793333	1769.373047	4.394292
9681.334043	4781.793333	1768.365234	-61.140053
9681.334043	4781.793333	1767.358398	60.742592
9681.334043	4781.793333	1766.350586	-16.669863
9681.334043	4781.793333	1765.342773	90.893097
9681.334043	4781.793333	1764.334961	-36.317451
9681.334043	4781.793333	1763.326172	26.134686
9681.334043	4781.793333	1762.318359	31.670433
9681.334043	4781.793333	1761.309570	94.053146
9681.334043	4781.793333	1760.300781	-52.082336
9681.334043	4781.793333	1759.291016	57.629314
9681.334043	4781.793333	1758.282227	51.246357
9681.334043	4781.793333	1757.272461	77.994431
9681.334043	4781.793333	1756.262695	-30.217138
9681.334043	4781.793333	1755.252930	24.906681
9681.334043	4781.793333	1754.243164	-83.285355
9681.334043	4781.793333	1753.233398	68.799644
9681.334043	4781.793333	1752.222656	67.052307
9681.334043	4781.793333	1751.211914	100.765816
9681.334043	4781.793333	1750.201172	2.035990
9681.334043	4781.793333	1749.190430	-9.199056
9681.334043	4781.793333	1748.179688	-100.809807
9681.334043	4781.793333	1747.167969	-83.695244
9681.334043	4781.793333	1746.156250	-40.611931
9681.334043	4781.793333	1745.144531	-151.110031
9681.334043	4781.793333	1744.132813	-115.144501
9681.334043	4781.793333	1743.121094	-65.038933
9681.334043	4781.793333	1742.108398	11.000478
9681.334043	4781.793333	1741.095703	58.670872
9681.334043	4781.793333	1740.083008	63.827835
9681.334043	4781.793333	1739.070313	50.092110
9681.334043	4781.793333	1738.057617	-53.300343
9681.334043	4781.793333	1737.043945	-78.832603
9681.334043	4781.793333	1736.030273	-17.113159
9681.334043	4781.793333	1735.016602	-54.458763
9681.334043	4781.793333	1734.002930	47.280617
9681.334043	4781.793333	1732.989258	-34.870972
9681.334043	4781.793333	1731.974609	-93.442558
9681.334043	4781.793333	1730.959961	27.051674
9681.334043	4781.793333	1729.945313	-118.691360
9681.334043	4781.793333	1728.930664	77.099457
9681.334043	4781.793333	1727.916016	23.209431
9681.334043	4781.793333	1726.900391	54.075283
9681.334043	4781.793333	1725.885742	-86.903595
9681.334043	4781.793333	1724.870117	49.845825
9681.334043	4781.793333	1723.853516	40.650795
9681.334043	4781.793333	1722.837891	-81.465210
9681.334043	4781.793333	1721.822266	-41.261276
9681.334043	4781.793333	1720.805664	-76.335884
9681.334043	4781.793333	1719.789063	-87.897919
9681.334043	4781.793333	1718.772461	95.632843
9681.334043	4781.793333	1717.754883	-49.942696
9681.334043	4781.793333	1716.738281	-49.788933
9681.334043	4781.793333	1715.720703	-28.506350
9681.334043	4781.793333	1714.703125	42.082455
9681.334043	4781.793333	1713.685547	-14.178140
9681.334043	4781.793333	1712.667969	-79.819733
9681.334043	4781.793333	1711.649414	-121.975060
9681.334043	4781.793333	1710.630859	-63.203506
9681.334043	4781.793333	1709.612305	49.505817
9681.334043	4781.793333	1708.593750	-128.755142
9681.334043	4781.793333	1707.575195	-100.539978
9681.334043	4781.793333	1706.555664	-25.444813
9681.334043	4781.793333	1705.536133	-4.317575
9681.334043	4781.793333	1704.516602	5.070399
9681.334043	4781.793333	1703.497070	-27.744123
9681.334043	4781.793333	1702.477539	54.271717
9681.334043	4781.793333	1701.457031	49.553959
9681.334043	4781.793333	1700.437500	44.832027
9681.334043	4781.793333	1699.416992	-88.713066
9681.334043	4781.793333	1698.395508	-39.573868
9681.334043	4781.793333	1697.375000	70.411217
9681.334043	4781.793333	1696.354492	-44.362320
9681.334043	4781.793333	1695.333008	119.387238
9681.334043	4781.793333	1694.311523	32.706108
9681.334043	4781.793333	1693.290039	-30.555958
9681.334043	4781.793333	1692.267578	-77.433189
9681.334043	4781.793333	1691.246094	13.673109
9681.334043	4781.793333	1690.223633	60.310528
9681.334043	4781.793333	1689.201172	127.960869
9681.334043	4781.793333	1688.178711	69.373787
9681.334043	4781.793333	1687.155273	-54.628521
9681.334043	4781.793333	1686.132813	43.354446
9681.334043	4781.793333	1685.109375	54.865356
9681.334043	4781.793333	1684.085938	14.988567
9681.334043	4781.793333	1683.062500	42.831657
9681.334043	4781.793333	1682.039063	33.306892
9681.334043	4781.793333	1681.014648	98.462509
9681.334043	4781.793333	1679.990234	67.913170
9681.334043	4781.793333	1678.965820	42.035488
9681.334043	4781.793333	1677.941406	181.777863
9681.334043	4781.793333	1676.916992	106.901199
9681.334043	4781.793333	1675.891602	41.371201
9681.334043	4781.793333	1674.866211	66.780571
9681.334043	4781.793333	1673.840820	75.858955
9681.334043	4781.793333	1672.815430	33.660717
9681.334043	4781.793333	1671.790039	114.959938
9681.334043	4781.793333	1670.763672	144.970840
9681.334043	4781.793333	1669.737305	84.133827
9681.334043	4781.793333	1668.710938	-41.884464
9681.334043	4781.793333	1667.684570	-98.014526
9681.334043	4781.793333	1666.658203	71.657372
9681.334043	4781.793333	1665.630859	-51.973888
9681.334043	4781.793333	1664.603516	19.887562
9681.334043	4781.793333	1663.576172	194.075867
9681.334043	4781.793333	1662.548828	79.785034
9681.334043	4781.793333	1661.520508	128.310822
9681.334043	4781.793333	1660.493164	144.268738
9681.334043	4781.793333	1659.464844	136.968887
9681.334043	4781.793333	1658.436523	-2.804069
9681.334043	4781.793333	1657.408203	127.015930
9681.334043	4781.793333	1656.378906	191.730499
9681.334043	4781.793333	1655.350586	137.961533
9681.334043	4781.793333	1654.321289	158.521057
9681.334043	4781.793333	1653.291992	9.576048
9681.334043	4781.793333	1652.261719	11.573640
9681.334043	4781.793333	1651.232422	176.038040
9681.334043	4781.793333	1650.202148	85.179756
9681.334043	4781.793333	1649.171875	101.076874
9681.334043	4781.793333	1648.141602	47.378994
9681.334043	4781.793333	1647.111328	67.913902
9681.334043	4781.793333	1646.080078	199.732742
9681.334043	4781.793333	1645.049805	206.318710
9681.334043	4781.793333	1644.018555	321.834473
9681.334043	4781.793333	1642.987305	261.186707
9681.334043	4781.793333	1641.955078	149.586243
9681.334043	4781.793333	1640.923828	271.994293
9681.334043	4781.793333	1639.891602	141.908005
9681.334043	4781.793333	1638.859375	176.275589
9681.334043	4781.793333	1637.827148	351.852081
9681.334043	4781.793333	1636.794922	235.714844
9681.334043	4781.793333	1635.761719	10.851996
9681.334043	4781.793333	1634.729492	15.142718
9681.334043	4781.793333	1633.696289	250.759949
9681.334043	4781.793333	1632.662109	176.360611
9681.334043	4781.793333	1631.628906	145.930771
9681.334043	4781.793333	1630.594727	99.327492
9681.334043	4781.793333	1629.561523	103.600784
9681.334043	4781.793333	1628.527344	225.734665
9681.334043	4781.793333	1627.493164	56.686611
9681.334043	4781.793333	1626.458008	271.189453
9681.334043	4781.793333	1625.423828	150.707230
9681.334043	4781.793333	1624.388672	231.176147
9681.334043	4781.793333	1623.353516	92.279755
9681.334043	4781.793333	1622.318359	271.994781
9681.334043	4781.793333	1621.282227	107.760101
9681.334043	4781.793333	1620.247070	204.340057
9681.334043	4781.793333	1619.210938	107.092751
9681.334043	4781.793333	1618.174805	148.281281
9681.334043	4781.793333	1617.137695	129.494980
9681.334043	4781.793333	1616.101563	131.474670
9681.334043	4781.793333	1615.064453	2.056534
9681.334043	4781.793333	1614.027344	209.190659
9681.334043	4781.793333	1612.990234	271.075958
9681.334043	4781.793333	1611.953125	141.720428
9681.334043	4781.793333	1610.916016	178.266800
9681.334043	4781.793333	1609.877930	171.044189
9681.334043	4781.793333	1608.839844	168.434280
9681.334043	4781.793333	1607.801758	202.664825
9681.334043	4781.793333	1606.763672	165.536743
9681.334043	4781.793333	1605.724609	225.075485
9681.334043	4781.793333	1604.685547	132.748154
9681.334043	4781.793333	1603.646484	189.982178
9681.334043	4781.793333	1602.607422	267.898834
9681.334043	4781.793333	1601.568359	364.186737
9681.334043	4781.793333	1600.528320	101.805008
9681.334043	4781.793333	1599.489258	230.280350
9681.334043	4781.793333	1598.449219	287.469696
9681.334043	4781.793333	1597.408203	206.784851
9681.334043	4781.793333	1596.368164	263.971283
9681.334043	4781.793333	1595.327148	148.887390
9681.334043	4781.793333	1594.287109	52.229305
9681.334043	4781.793333	1593.246094	231.110367
9681.334043	4781.793333	1592.204102	187.276398
9681.334043	4781.793333	1591.163086	290.345764
9681.334043	4781.793333	1590.121094	274.068146
9681.334043	4781.793333	1589.079102	156.869492
9681.334043	4781.793333	1588.037109	298.897461
9681.334043	4781.793333	1586.995117	236.792328
9681.334043	4781.793333	1585.953125	277.890747
9681.334043	4781.793333	1584.910156	302.933594
9681.334043	4781.793333	1583.867188	492.983582
9681.334043	4781.793333	1582.824219	339.270813
9681.334043	4781.793333	1581.781250	226.864334
9681.334043	4781.793333	1580.737305	245.062744
9681.334043	4781.793333	1579.693359	306.773834
9681.334043	4781.793333	1578.649414	340.996857
9681.334043	4781.793333	1577.605469	276.787109
9681.334043	4781.793333	1576.561523	423.167236
9681.334043	4781.793333	1575.516602	324.662445
9681.334043	4781.793333	1574.472656	278.828827
9681.334043	4781.793333	1573.427734	356.534485
9681.334043	4781.793333	1572.381836	427.357758
9681.334043	4781.793333	1571.336914	328.975708
9681.334043	4781.793333	1570.291016	248.928467
