#X		#Y		#Wave		#Intensity
9541.547872	4845.450000	1999.946289	195.517899
9541.547872	4845.450000	1998.981445	198.390747
9541.547872	4845.450000	1998.017578	212.630890
9541.547872	4845.450000	1997.052734	-53.143654
9541.547872	4845.450000	1996.088867	-31.390608
9541.547872	4845.450000	1995.124023	-7.150113
9541.547872	4845.450000	1994.159180	-25.003542
9541.547872	4845.450000	1993.193359	-114.644218
9541.547872	4845.450000	1992.228516	50.779041
9541.547872	4845.450000	1991.262695	-1.672217
9541.547872	4845.450000	1990.296875	-16.960827
9541.547872	4845.450000	1989.331055	4.893214
9541.547872	4845.450000	1988.365234	-5.402068
9541.547872	4845.450000	1987.398438	65.950317
9541.547872	4845.450000	1986.432617	110.095200
9541.547872	4845.450000	1985.465820	35.556740
9541.547872	4845.450000	1984.499023	40.174652
9541.547872	4845.450000	1983.532227	-143.036926
9541.547872	4845.450000	1982.565430	-37.026733
9541.547872	4845.450000	1981.597656	76.374847
9541.547872	4845.450000	1980.629883	-32.573135
9541.547872	4845.450000	1979.662109	66.006714
9541.547872	4845.450000	1978.694336	1.589919
9541.547872	4845.450000	1977.726563	-126.974945
9541.547872	4845.450000	1976.758789	-60.462845
9541.547872	4845.450000	1975.790039	-1.361289
9541.547872	4845.450000	1974.821289	-28.625759
9541.547872	4845.450000	1973.852539	126.704597
9541.547872	4845.450000	1972.883789	173.464645
9541.547872	4845.450000	1971.915039	62.391117
9541.547872	4845.450000	1970.945313	-23.965843
9541.547872	4845.450000	1969.975586	106.672539
9541.547872	4845.450000	1969.005859	-88.073257
9541.547872	4845.450000	1968.036133	52.424095
9541.547872	4845.450000	1967.066406	15.488196
9541.547872	4845.450000	1966.096680	146.098404
9541.547872	4845.450000	1965.125977	143.677048
9541.547872	4845.450000	1964.155273	64.936806
9541.547872	4845.450000	1963.184570	37.947853
9541.547872	4845.450000	1962.213867	20.834051
9541.547872	4845.450000	1961.242188	126.800499
9541.547872	4845.450000	1960.271484	-64.996078
9541.547872	4845.450000	1959.299805	-84.488579
9541.547872	4845.450000	1958.328125	-17.863869
9541.547872	4845.450000	1957.356445	46.294369
9541.547872	4845.450000	1956.384766	48.974728
9541.547872	4845.450000	1955.412109	-127.792908
9541.547872	4845.450000	1954.439453	10.138966
9541.547872	4845.450000	1953.467773	155.410461
9541.547872	4845.450000	1952.495117	47.569378
9541.547872	4845.450000	1951.521484	121.570145
9541.547872	4845.450000	1950.548828	-30.402105
9541.547872	4845.450000	1949.575195	53.441238
9541.547872	4845.450000	1948.601563	53.791985
9541.547872	4845.450000	1947.627930	2.608905
9541.547872	4845.450000	1946.654297	115.898125
9541.547872	4845.450000	1945.680664	59.845943
9541.547872	4845.450000	1944.706055	57.802696
9541.547872	4845.450000	1943.732422	-3.093603
9541.547872	4845.450000	1942.757813	48.859421
9541.547872	4845.450000	1941.783203	64.027763
9541.547872	4845.450000	1940.807617	-45.825104
9541.547872	4845.450000	1939.833008	42.916233
9541.547872	4845.450000	1938.857422	4.204261
9541.547872	4845.450000	1937.881836	-29.579475
9541.547872	4845.450000	1936.906250	-16.792648
9541.547872	4845.450000	1935.930664	54.785191
9541.547872	4845.450000	1934.955078	126.349098
9541.547872	4845.450000	1933.978516	-10.211880
9541.547872	4845.450000	1933.001953	-19.419121
9541.547872	4845.450000	1932.025391	-97.139587
9541.547872	4845.450000	1931.048828	-42.681641
9541.547872	4845.450000	1930.072266	-68.967926
9541.547872	4845.450000	1929.094727	-14.513637
9541.547872	4845.450000	1928.118164	76.616600
9541.547872	4845.450000	1927.140625	47.909729
9541.547872	4845.450000	1926.163086	-5.223092
9541.547872	4845.450000	1925.184570	-21.662762
9541.547872	4845.450000	1924.207031	86.547974
9541.547872	4845.450000	1923.228516	-132.680511
9541.547872	4845.450000	1922.250000	-4.927839
9541.547872	4845.450000	1921.271484	54.398472
9541.547872	4845.450000	1920.292969	20.915817
9541.547872	4845.450000	1919.314453	-0.337516
9541.547872	4845.450000	1918.334961	34.568672
9541.547872	4845.450000	1917.355469	27.979507
9541.547872	4845.450000	1916.375977	62.883465
9541.547872	4845.450000	1915.396484	14.832016
9541.547872	4845.450000	1914.416992	115.599281
9541.547872	4845.450000	1913.436523	9.038349
9541.547872	4845.450000	1912.457031	-124.297569
9541.547872	4845.450000	1911.476563	-91.802101
9541.547872	4845.450000	1910.496094	47.933777
9541.547872	4845.450000	1909.515625	85.270607
9541.547872	4845.450000	1908.534180	-8.973645
9541.547872	4845.450000	1907.552734	79.527008
9541.547872	4845.450000	1906.572266	24.299709
9541.547872	4845.450000	1905.590820	-26.032984
9541.547872	4845.450000	1904.608398	21.044270
9541.547872	4845.450000	1903.626953	9.687113
9541.547872	4845.450000	1902.644531	95.688538
9541.547872	4845.450000	1901.663086	-49.504330
9541.547872	4845.450000	1900.680664	65.676422
9541.547872	4845.450000	1899.698242	-42.964737
9541.547872	4845.450000	1898.714844	40.561085
9541.547872	4845.450000	1897.732422	-33.989433
9541.547872	4845.450000	1896.749023	-28.285669
9541.547872	4845.450000	1895.765625	-44.458221
9541.547872	4845.450000	1894.782227	29.291933
9541.547872	4845.450000	1893.798828	-45.195663
9541.547872	4845.450000	1892.814453	9.094758
9541.547872	4845.450000	1891.831055	5.074632
9541.547872	4845.450000	1890.846680	-117.932228
9541.547872	4845.450000	1889.862305	-10.245393
9541.547872	4845.450000	1888.877930	-48.244553
9541.547872	4845.450000	1887.892578	39.971313
9541.547872	4845.450000	1886.908203	-68.393387
9541.547872	4845.450000	1885.922852	53.755676
9541.547872	4845.450000	1884.937500	-13.339552
9541.547872	4845.450000	1883.952148	43.271324
9541.547872	4845.450000	1882.965820	-4.404226
9541.547872	4845.450000	1881.980469	175.815262
9541.547872	4845.450000	1880.994141	60.261421
9541.547872	4845.450000	1880.007813	-127.951721
9541.547872	4845.450000	1879.021484	18.259531
9541.547872	4845.450000	1878.035156	14.221561
9541.547872	4845.450000	1877.047852	114.325615
9541.547872	4845.450000	1876.061523	-66.507057
9541.547872	4845.450000	1875.074219	81.986778
9541.547872	4845.450000	1874.086914	-64.893265
9541.547872	4845.450000	1873.098633	-68.935638
9541.547872	4845.450000	1872.111328	9.289236
9541.547872	4845.450000	1871.123047	99.574364
9541.547872	4845.450000	1870.135742	68.881096
9541.547872	4845.450000	1869.147461	21.263639
9541.547872	4845.450000	1868.158203	-28.760225
9541.547872	4845.450000	1867.169922	54.186913
9541.547872	4845.450000	1866.180664	-3.089306
9541.547872	4845.450000	1865.192383	74.974594
9541.547872	4845.450000	1864.203125	75.687157
9541.547872	4845.450000	1863.213867	-39.558193
9541.547872	4845.450000	1862.223633	-12.274562
9541.547872	4845.450000	1861.234375	-52.620583
9541.547872	4845.450000	1860.244141	-51.918133
9541.547872	4845.450000	1859.253906	-19.845522
9541.547872	4845.450000	1858.263672	84.606766
9541.547872	4845.450000	1857.273438	-54.692379
9541.547872	4845.450000	1856.282227	-39.552982
9541.547872	4845.450000	1855.291992	45.519268
9541.547872	4845.450000	1854.300781	99.198990
9541.547872	4845.450000	1853.309570	-42.449883
9541.547872	4845.450000	1852.317383	-15.312595
9541.547872	4845.450000	1851.326172	132.313248
9541.547872	4845.450000	1850.333984	-47.850914
9541.547872	4845.450000	1849.342773	-44.853134
9541.547872	4845.450000	1848.350586	-29.824558
9541.547872	4845.450000	1847.357422	2.044123
9541.547872	4845.450000	1846.365234	2.587272
9541.547872	4845.450000	1845.372070	-28.180330
9541.547872	4845.450000	1844.379883	25.297409
9541.547872	4845.450000	1843.386719	-89.717216
9541.547872	4845.450000	1842.393555	64.781776
9541.547872	4845.450000	1841.399414	-18.950340
9541.547872	4845.450000	1840.406250	-59.370560
9541.547872	4845.450000	1839.412109	-46.885124
9541.547872	4845.450000	1838.417969	93.009552
9541.547872	4845.450000	1837.423828	54.952930
9541.547872	4845.450000	1836.429688	115.435524
9541.547872	4845.450000	1835.434570	-57.204445
9541.547872	4845.450000	1834.440430	-64.021935
9541.547872	4845.450000	1833.445313	-42.028316
9541.547872	4845.450000	1832.450195	114.430489
9541.547872	4845.450000	1831.454102	76.322533
9541.547872	4845.450000	1830.458984	2.204799
9541.547872	4845.450000	1829.462891	91.313377
9541.547872	4845.450000	1828.466797	93.981117
9541.547872	4845.450000	1827.470703	-112.109047
9541.547872	4845.450000	1826.474609	63.281971
9541.547872	4845.450000	1825.478516	-125.968063
9541.547872	4845.450000	1824.481445	87.693298
9541.547872	4845.450000	1823.484375	-48.779427
9541.547872	4845.450000	1822.487305	-110.908371
9541.547872	4845.450000	1821.490234	85.802406
9541.547872	4845.450000	1820.493164	54.787327
9541.547872	4845.450000	1819.495117	93.240364
9541.547872	4845.450000	1818.498047	102.920074
9541.547872	4845.450000	1817.500000	57.496784
9541.547872	4845.450000	1816.500977	74.324303
9541.547872	4845.450000	1815.502930	7.342929
9541.547872	4845.450000	1814.504883	-121.860794
9541.547872	4845.450000	1813.505859	103.126755
9541.547872	4845.450000	1812.506836	55.261784
9541.547872	4845.450000	1811.507813	-26.092562
9541.547872	4845.450000	1810.508789	-57.210812
9541.547872	4845.450000	1809.508789	24.048624
9541.547872	4845.450000	1808.508789	-74.046936
9541.547872	4845.450000	1807.508789	81.245071
9541.547872	4845.450000	1806.508789	143.256073
9541.547872	4845.450000	1805.508789	164.605118
9541.547872	4845.450000	1804.508789	135.759369
9541.547872	4845.450000	1803.507813	16.141588
9541.547872	4845.450000	1802.506836	11.174006
9541.547872	4845.450000	1801.505859	132.730057
9541.547872	4845.450000	1800.504883	34.605076
9541.547872	4845.450000	1799.502930	31.962463
9541.547872	4845.450000	1798.501953	34.075211
9541.547872	4845.450000	1797.500000	7.535851
9541.547872	4845.450000	1796.498047	85.940079
9541.547872	4845.450000	1795.496094	164.294174
9541.547872	4845.450000	1794.493164	49.459698
9541.547872	4845.450000	1793.491211	27.623924
9541.547872	4845.450000	1792.488281	-10.910346
9541.547872	4845.450000	1791.485352	31.573299
9541.547872	4845.450000	1790.482422	-52.258209
9541.547872	4845.450000	1789.478516	-36.029694
9541.547872	4845.450000	1788.475586	32.570816
9541.547872	4845.450000	1787.471680	20.159914
9541.547872	4845.450000	1786.467773	69.633812
9541.547872	4845.450000	1785.463867	123.827927
9541.547872	4845.450000	1784.459961	20.908220
9541.547872	4845.450000	1783.455078	-41.545635
9541.547872	4845.450000	1782.450195	100.596550
9541.547872	4845.450000	1781.445313	-30.868389
9541.547872	4845.450000	1780.440430	-71.938026
9541.547872	4845.450000	1779.435547	139.016510
9541.547872	4845.450000	1778.429688	169.201767
9541.547872	4845.450000	1777.424805	156.574219
9541.547872	4845.450000	1776.418945	72.640205
9541.547872	4845.450000	1775.413086	71.870415
9541.547872	4845.450000	1774.406250	4.566514
9541.547872	4845.450000	1773.400391	-31.856823
9541.547872	4845.450000	1772.393555	-23.175148
9541.547872	4845.450000	1771.386719	132.671677
9541.547872	4845.450000	1770.379883	34.464882
9541.547872	4845.450000	1769.373047	21.705969
9541.547872	4845.450000	1768.365234	32.655491
9541.547872	4845.450000	1767.358398	-63.169094
9541.547872	4845.450000	1766.350586	130.375885
9541.547872	4845.450000	1765.342773	93.806755
9541.547872	4845.450000	1764.334961	9.812981
9541.547872	4845.450000	1763.326172	68.052513
9541.547872	4845.450000	1762.318359	-75.196724
9541.547872	4845.450000	1761.309570	129.903580
9541.547872	4845.450000	1760.300781	143.010498
9541.547872	4845.450000	1759.291016	2.128077
9541.547872	4845.450000	1758.282227	-72.411377
9541.547872	4845.450000	1757.272461	42.471027
9541.547872	4845.450000	1756.262695	-60.499695
9541.547872	4845.450000	1755.252930	-21.444094
9541.547872	4845.450000	1754.243164	180.855164
9541.547872	4845.450000	1753.233398	184.318573
9541.547872	4845.450000	1752.222656	81.311378
9541.547872	4845.450000	1751.211914	89.478172
9541.547872	4845.450000	1750.201172	142.547043
9541.547872	4845.450000	1749.190430	93.917480
9541.547872	4845.450000	1748.179688	132.741394
9541.547872	4845.450000	1747.167969	-38.799091
9541.547872	4845.450000	1746.156250	-51.989979
9541.547872	4845.450000	1745.144531	29.295771
9541.547872	4845.450000	1744.132813	44.398087
9541.547872	4845.450000	1743.121094	-25.537441
9541.547872	4845.450000	1742.108398	-34.084156
9541.547872	4845.450000	1741.095703	-7.240832
9541.547872	4845.450000	1740.083008	-13.468796
9541.547872	4845.450000	1739.070313	-85.784065
9541.547872	4845.450000	1738.057617	106.133781
9541.547872	4845.450000	1737.043945	78.595581
9541.547872	4845.450000	1736.030273	15.673972
9541.547872	4845.450000	1735.016602	-9.518637
9541.547872	4845.450000	1734.002930	2.995896
9541.547872	4845.450000	1732.989258	86.193268
9541.547872	4845.450000	1731.974609	-92.230484
9541.547872	4845.450000	1730.959961	28.607426
9541.547872	4845.450000	1729.945313	50.445885
9541.547872	4845.450000	1728.930664	248.889999
9541.547872	4845.450000	1727.916016	42.237762
9541.547872	4845.450000	1726.900391	177.002502
9541.547872	4845.450000	1725.885742	285.808319
9541.547872	4845.450000	1724.870117	98.034264
9541.547872	4845.450000	1723.853516	279.708282
9541.547872	4845.450000	1722.837891	164.894028
9541.547872	4845.450000	1721.822266	92.440742
9541.547872	4845.450000	1720.805664	196.356323
9541.547872	4845.450000	1719.789063	46.299637
9541.547872	4845.450000	1718.772461	-21.445946
9541.547872	4845.450000	1717.754883	-13.981960
9541.547872	4845.450000	1716.738281	-44.130779
9541.547872	4845.450000	1715.720703	-156.513107
9541.547872	4845.450000	1714.703125	-99.755608
9541.547872	4845.450000	1713.685547	97.864044
9541.547872	4845.450000	1712.667969	-117.840996
9541.547872	4845.450000	1711.649414	-25.966478
9541.547872	4845.450000	1710.630859	124.530922
9541.547872	4845.450000	1709.612305	63.763687
9541.547872	4845.450000	1708.593750	68.694382
9541.547872	4845.450000	1707.575195	73.606407
9541.547872	4845.450000	1706.555664	-57.524780
9541.547872	4845.450000	1705.536133	-94.831535
9541.547872	4845.450000	1704.516602	22.584265
9541.547872	4845.450000	1703.497070	-101.477875
9541.547872	4845.450000	1702.477539	-70.842964
9541.547872	4845.450000	1701.457031	-84.754807
9541.547872	4845.450000	1700.437500	-145.523575
9541.547872	4845.450000	1699.416992	60.707165
9541.547872	4845.450000	1698.395508	102.928284
9541.547872	4845.450000	1697.375000	35.087517
9541.547872	4845.450000	1696.354492	-35.082882
9541.547872	4845.450000	1695.333008	-194.173477
9541.547872	4845.450000	1694.311523	-142.634323
9541.547872	4845.450000	1693.290039	-107.504311
9541.547872	4845.450000	1692.267578	-23.288063
9541.547872	4845.450000	1691.246094	-53.698338
9541.547872	4845.450000	1690.223633	-39.691906
9541.547872	4845.450000	1689.201172	-39.729034
9541.547872	4845.450000	1688.178711	-46.790466
9541.547872	4845.450000	1687.155273	91.007782
9541.547872	4845.450000	1686.132813	-30.575729
9541.547872	4845.450000	1685.109375	-156.799637
9541.547872	4845.450000	1684.085938	-107.838486
9541.547872	4845.450000	1683.062500	74.179520
9541.547872	4845.450000	1682.039063	53.021202
9541.547872	4845.450000	1681.014648	-73.172173
9541.547872	4845.450000	1679.990234	-17.313889
9541.547872	4845.450000	1678.965820	40.845306
9541.547872	4845.450000	1677.941406	31.325174
9541.547872	4845.450000	1676.916992	-13.184110
9541.547872	4845.450000	1675.891602	-20.383121
9541.547872	4845.450000	1674.866211	154.249969
9541.547872	4845.450000	1673.840820	121.362854
9541.547872	4845.450000	1672.815430	128.095428
9541.547872	4845.450000	1671.790039	50.938164
9541.547872	4845.450000	1670.763672	34.364769
9541.547872	4845.450000	1669.737305	55.052879
9541.547872	4845.450000	1668.710938	5.867487
9541.547872	4845.450000	1667.684570	73.098877
9541.547872	4845.450000	1666.658203	-27.296656
9541.547872	4845.450000	1665.630859	-71.811729
9541.547872	4845.450000	1664.603516	0.021372
9541.547872	4845.450000	1663.576172	41.577404
9541.547872	4845.450000	1662.548828	20.311213
9541.547872	4845.450000	1661.520508	-14.909979
9541.547872	4845.450000	1660.493164	84.728462
9541.547872	4845.450000	1659.464844	-117.870796
9541.547872	4845.450000	1658.436523	0.325415
9541.547872	4845.450000	1657.408203	-55.802761
9541.547872	4845.450000	1656.378906	32.118725
9541.547872	4845.450000	1655.350586	78.195076
9541.547872	4845.450000	1654.321289	35.998356
9541.547872	4845.450000	1653.291992	42.571041
9541.547872	4845.450000	1652.261719	7.348212
9541.547872	4845.450000	1651.232422	67.296432
9541.547872	4845.450000	1650.202148	-5.053773
9541.547872	4845.450000	1649.171875	124.463150
9541.547872	4845.450000	1648.141602	137.946579
9541.547872	4845.450000	1647.111328	70.251770
9541.547872	4845.450000	1646.080078	51.268364
9541.547872	4845.450000	1645.049805	180.661209
9541.547872	4845.450000	1644.018555	73.582390
9541.547872	4845.450000	1642.987305	56.919151
9541.547872	4845.450000	1641.955078	93.545044
9541.547872	4845.450000	1640.923828	199.652237
9541.547872	4845.450000	1639.891602	189.912872
9541.547872	4845.450000	1638.859375	159.336243
9541.547872	4845.450000	1637.827148	82.468529
9541.547872	4845.450000	1636.794922	93.586357
9541.547872	4845.450000	1635.761719	162.550583
9541.547872	4845.450000	1634.729492	162.079254
9541.547872	4845.450000	1633.696289	277.269348
9541.547872	4845.450000	1632.662109	114.869125
9541.547872	4845.450000	1631.628906	77.405754
9541.547872	4845.450000	1630.594727	35.330677
9541.547872	4845.450000	1629.561523	108.851669
9541.547872	4845.450000	1628.527344	159.231216
9541.547872	4845.450000	1627.493164	168.002060
9541.547872	4845.450000	1626.458008	202.179382
9541.547872	4845.450000	1625.423828	63.120831
9541.547872	4845.450000	1624.388672	235.866272
9541.547872	4845.450000	1623.353516	66.842003
9541.547872	4845.450000	1622.318359	262.608826
9541.547872	4845.450000	1621.282227	123.650665
9541.547872	4845.450000	1620.247070	123.202133
9541.547872	4845.450000	1619.210938	240.412003
9541.547872	4845.450000	1618.174805	320.675293
9541.547872	4845.450000	1617.137695	227.948624
9541.547872	4845.450000	1616.101563	202.131058
9541.547872	4845.450000	1615.064453	328.469604
9541.547872	4845.450000	1614.027344	291.125336
9541.547872	4845.450000	1612.990234	313.713287
9541.547872	4845.450000	1611.953125	147.380203
9541.547872	4845.450000	1610.916016	142.357803
9541.547872	4845.450000	1609.877930	153.461136
9541.547872	4845.450000	1608.839844	353.374725
9541.547872	4845.450000	1607.801758	293.081268
9541.547872	4845.450000	1606.763672	340.995544
9541.547872	4845.450000	1605.724609	241.618729
9541.547872	4845.450000	1604.685547	383.865753
9541.547872	4845.450000	1603.646484	309.838409
9541.547872	4845.450000	1602.607422	447.433502
9541.547872	4845.450000	1601.568359	421.725952
9541.547872	4845.450000	1600.528320	382.240417
9541.547872	4845.450000	1599.489258	568.035400
9541.547872	4845.450000	1598.449219	535.448853
9541.547872	4845.450000	1597.408203	684.391357
9541.547872	4845.450000	1596.368164	729.917358
9541.547872	4845.450000	1595.327148	736.388367
9541.547872	4845.450000	1594.287109	685.463928
9541.547872	4845.450000	1593.246094	845.781006
9541.547872	4845.450000	1592.204102	916.523438
9541.547872	4845.450000	1591.163086	1017.086975
9541.547872	4845.450000	1590.121094	901.939758
9541.547872	4845.450000	1589.079102	864.846069
9541.547872	4845.450000	1588.037109	834.658752
9541.547872	4845.450000	1586.995117	921.444458
9541.547872	4845.450000	1585.953125	643.675171
9541.547872	4845.450000	1584.910156	854.265259
9541.547872	4845.450000	1583.867188	725.605103
9541.547872	4845.450000	1582.824219	693.243652
9541.547872	4845.450000	1581.781250	736.506409
9541.547872	4845.450000	1580.737305	628.595520
9541.547872	4845.450000	1579.693359	646.689209
9541.547872	4845.450000	1578.649414	625.868347
9541.547872	4845.450000	1577.605469	579.889954
9541.547872	4845.450000	1576.561523	721.611755
9541.547872	4845.450000	1575.516602	584.132385
9541.547872	4845.450000	1574.472656	666.347046
9541.547872	4845.450000	1573.427734	663.912354
9541.547872	4845.450000	1572.381836	538.002319
9541.547872	4845.450000	1571.336914	592.785583
