#X		#Y		#Wave		#Intensity
9300.537234	4798.931667	1999.946289	-39.660889
9300.537234	4798.931667	1998.981445	146.099716
9300.537234	4798.931667	1998.017578	-35.158829
9300.537234	4798.931667	1997.052734	-248.554108
9300.537234	4798.931667	1996.088867	18.809822
9300.537234	4798.931667	1995.124023	13.595715
9300.537234	4798.931667	1994.159180	-63.429115
9300.537234	4798.931667	1993.193359	-9.170532
9300.537234	4798.931667	1992.228516	37.656933
9300.537234	4798.931667	1991.262695	82.002281
9300.537234	4798.931667	1990.296875	12.500912
9300.537234	4798.931667	1989.331055	-19.844210
9300.537234	4798.931667	1988.365234	78.957169
9300.537234	4798.931667	1987.398438	271.727783
9300.537234	4798.931667	1986.432617	130.579056
9300.537234	4798.931667	1985.465820	38.947483
9300.537234	4798.931667	1984.499023	6.695902
9300.537234	4798.931667	1983.532227	-112.039940
9300.537234	4798.931667	1982.565430	-18.190697
9300.537234	4798.931667	1981.597656	-60.257778
9300.537234	4798.931667	1980.629883	223.786621
9300.537234	4798.931667	1979.662109	80.455208
9300.537234	4798.931667	1978.694336	85.355385
9300.537234	4798.931667	1977.726563	26.075039
9300.537234	4798.931667	1976.758789	-47.979595
9300.537234	4798.931667	1975.790039	221.059296
9300.537234	4798.931667	1974.821289	8.838550
9300.537234	4798.931667	1973.852539	18.750719
9300.537234	4798.931667	1972.883789	255.603394
9300.537234	4798.931667	1971.915039	92.861404
9300.537234	4798.931667	1970.945313	-138.849594
9300.537234	4798.931667	1969.975586	-123.932632
9300.537234	4798.931667	1969.005859	107.895432
9300.537234	4798.931667	1968.036133	-2.892781
9300.537234	4798.931667	1967.066406	-86.523888
9300.537234	4798.931667	1966.096680	-14.912964
9300.537234	4798.931667	1965.125977	-19.668638
9300.537234	4798.931667	1964.155273	-147.535889
9300.537234	4798.931667	1963.184570	118.589722
9300.537234	4798.931667	1962.213867	-95.383667
9300.537234	4798.931667	1961.242188	-124.679878
9300.537234	4798.931667	1960.271484	141.334076
9300.537234	4798.931667	1959.299805	-45.423153
9300.537234	4798.931667	1958.328125	-3.337270
9300.537234	4798.931667	1957.356445	193.683441
9300.537234	4798.931667	1956.384766	139.840042
9300.537234	4798.931667	1955.412109	-29.516962
9300.537234	4798.931667	1954.439453	113.361389
9300.537234	4798.931667	1953.467773	-53.442020
9300.537234	4798.931667	1952.495117	-97.320824
9300.537234	4798.931667	1951.521484	-101.866882
9300.537234	4798.931667	1950.548828	36.058289
9300.537234	4798.931667	1949.575195	-66.712326
9300.537234	4798.931667	1948.601563	-12.298017
9300.537234	4798.931667	1947.627930	-56.081730
9300.537234	4798.931667	1946.654297	91.597542
9300.537234	4798.931667	1945.680664	197.518951
9300.537234	4798.931667	1944.706055	244.530182
9300.537234	4798.931667	1943.732422	156.627884
9300.537234	4798.931667	1942.757813	78.576866
9300.537234	4798.931667	1941.783203	69.223503
9300.537234	4798.931667	1940.807617	145.687958
9300.537234	4798.931667	1939.833008	-47.483406
9300.537234	4798.931667	1938.857422	9.391273
9300.537234	4798.931667	1937.881836	-80.753792
9300.537234	4798.931667	1936.906250	120.661324
9300.537234	4798.931667	1935.930664	108.927452
9300.537234	4798.931667	1934.955078	84.963371
9300.537234	4798.931667	1933.978516	14.498675
9300.537234	4798.931667	1933.001953	414.067108
9300.537234	4798.931667	1932.025391	304.428223
9300.537234	4798.931667	1931.048828	339.212738
9300.537234	4798.931667	1930.072266	227.201660
9300.537234	4798.931667	1929.094727	352.510406
9300.537234	4798.931667	1928.118164	203.873413
9300.537234	4798.931667	1927.140625	192.228714
9300.537234	4798.931667	1926.163086	278.385315
9300.537234	4798.931667	1925.184570	247.192993
9300.537234	4798.931667	1924.207031	321.105865
9300.537234	4798.931667	1923.228516	123.786575
9300.537234	4798.931667	1922.250000	244.124191
9300.537234	4798.931667	1921.271484	242.304031
9300.537234	4798.931667	1920.292969	445.616882
9300.537234	4798.931667	1919.314453	224.038086
9300.537234	4798.931667	1918.334961	207.596191
9300.537234	4798.931667	1917.355469	8.122561
9300.537234	4798.931667	1916.375977	18.582767
9300.537234	4798.931667	1915.396484	19.286144
9300.537234	4798.931667	1914.416992	151.715836
9300.537234	4798.931667	1913.436523	67.047867
9300.537234	4798.931667	1912.457031	99.458755
9300.537234	4798.931667	1911.476563	36.784180
9300.537234	4798.931667	1910.496094	100.884727
9300.537234	4798.931667	1909.515625	52.865604
9300.537234	4798.931667	1908.534180	-21.934072
9300.537234	4798.931667	1907.552734	29.974188
9300.537234	4798.931667	1906.572266	154.936279
9300.537234	4798.931667	1905.590820	67.995934
9300.537234	4798.931667	1904.608398	39.523979
9300.537234	4798.931667	1903.626953	30.540575
9300.537234	4798.931667	1902.644531	-136.633179
9300.537234	4798.931667	1901.663086	-2.007436
9300.537234	4798.931667	1900.680664	-181.271820
9300.537234	4798.931667	1899.698242	-32.090240
9300.537234	4798.931667	1898.714844	5.165496
9300.537234	4798.931667	1897.732422	-35.397610
9300.537234	4798.931667	1896.749023	113.676346
9300.537234	4798.931667	1895.765625	31.788845
9300.537234	4798.931667	1894.782227	282.863434
9300.537234	4798.931667	1893.798828	-156.188080
9300.537234	4798.931667	1892.814453	31.665810
9300.537234	4798.931667	1891.831055	-135.150528
9300.537234	4798.931667	1890.846680	-105.212463
9300.537234	4798.931667	1889.862305	-155.405609
9300.537234	4798.931667	1888.877930	49.298046
9300.537234	4798.931667	1887.892578	-165.942062
9300.537234	4798.931667	1886.908203	172.141174
9300.537234	4798.931667	1885.922852	49.145248
9300.537234	4798.931667	1884.937500	-279.983429
9300.537234	4798.931667	1883.952148	-63.333088
9300.537234	4798.931667	1882.965820	104.737160
9300.537234	4798.931667	1881.980469	-95.740929
9300.537234	4798.931667	1880.994141	55.299862
9300.537234	4798.931667	1880.007813	-40.899166
9300.537234	4798.931667	1879.021484	131.872604
9300.537234	4798.931667	1878.035156	-192.021851
9300.537234	4798.931667	1877.047852	-130.707336
9300.537234	4798.931667	1876.061523	-98.478203
9300.537234	4798.931667	1875.074219	40.258087
9300.537234	4798.931667	1874.086914	-14.711235
9300.537234	4798.931667	1873.098633	70.701920
9300.537234	4798.931667	1872.111328	-95.571213
9300.537234	4798.931667	1871.123047	-150.505493
9300.537234	4798.931667	1870.135742	-328.781982
9300.537234	4798.931667	1869.147461	34.706497
9300.537234	4798.931667	1868.158203	93.396095
9300.537234	4798.931667	1867.169922	-89.686180
9300.537234	4798.931667	1866.180664	55.999386
9300.537234	4798.931667	1865.192383	13.134119
9300.537234	4798.931667	1864.203125	25.843653
9300.537234	4798.931667	1863.213867	-157.125748
9300.537234	4798.931667	1862.223633	225.110794
9300.537234	4798.931667	1861.234375	104.935860
9300.537234	4798.931667	1860.244141	8.935929
9300.537234	4798.931667	1859.253906	-77.382927
9300.537234	4798.931667	1858.263672	-79.213409
9300.537234	4798.931667	1857.273438	58.893368
9300.537234	4798.931667	1856.282227	30.476543
9300.537234	4798.931667	1855.291992	-46.180824
9300.537234	4798.931667	1854.300781	45.985199
9300.537234	4798.931667	1853.309570	181.503189
9300.537234	4798.931667	1852.317383	177.138824
9300.537234	4798.931667	1851.326172	139.021896
9300.537234	4798.931667	1850.333984	76.807106
9300.537234	4798.931667	1849.342773	-101.042686
9300.537234	4798.931667	1848.350586	84.890831
9300.537234	4798.931667	1847.357422	-61.617306
9300.537234	4798.931667	1846.365234	23.077496
9300.537234	4798.931667	1845.372070	-94.504974
9300.537234	4798.931667	1844.379883	163.437164
9300.537234	4798.931667	1843.386719	36.215652
9300.537234	4798.931667	1842.393555	46.172676
9300.537234	4798.931667	1841.399414	188.419464
9300.537234	4798.931667	1840.406250	41.972874
9300.537234	4798.931667	1839.412109	54.276348
9300.537234	4798.931667	1838.417969	-10.380578
9300.537234	4798.931667	1837.423828	170.160980
9300.537234	4798.931667	1836.429688	314.565735
9300.537234	4798.931667	1835.434570	84.037651
9300.537234	4798.931667	1834.440430	341.283203
9300.537234	4798.931667	1833.445313	173.251495
9300.537234	4798.931667	1832.450195	267.035919
9300.537234	4798.931667	1831.454102	-129.065948
9300.537234	4798.931667	1830.458984	156.754120
9300.537234	4798.931667	1829.462891	87.210739
9300.537234	4798.931667	1828.466797	-11.123177
9300.537234	4798.931667	1827.470703	322.435699
9300.537234	4798.931667	1826.474609	216.854843
9300.537234	4798.931667	1825.478516	197.635956
9300.537234	4798.931667	1824.481445	-1.446926
9300.537234	4798.931667	1823.484375	82.429230
9300.537234	4798.931667	1822.487305	87.147942
9300.537234	4798.931667	1821.490234	72.669891
9300.537234	4798.931667	1820.493164	166.001633
9300.537234	4798.931667	1819.495117	113.133949
9300.537234	4798.931667	1818.498047	0.384328
9300.537234	4798.931667	1817.500000	91.209129
9300.537234	4798.931667	1816.500977	114.932259
9300.537234	4798.931667	1815.502930	-81.614975
9300.537234	4798.931667	1814.504883	150.314026
9300.537234	4798.931667	1813.505859	-77.325279
9300.537234	4798.931667	1812.506836	70.724014
9300.537234	4798.931667	1811.507813	63.207764
9300.537234	4798.931667	1810.508789	156.115967
9300.537234	4798.931667	1809.508789	103.099335
9300.537234	4798.931667	1808.508789	-143.572433
9300.537234	4798.931667	1807.508789	-170.271652
9300.537234	4798.931667	1806.508789	163.876480
9300.537234	4798.931667	1805.508789	94.067047
9300.537234	4798.931667	1804.508789	57.702194
9300.537234	4798.931667	1803.507813	35.651253
9300.537234	4798.931667	1802.506836	78.059074
9300.537234	4798.931667	1801.505859	-27.606770
9300.537234	4798.931667	1800.504883	179.451370
9300.537234	4798.931667	1799.502930	226.494354
9300.537234	4798.931667	1798.501953	130.321167
9300.537234	4798.931667	1797.500000	115.269119
9300.537234	4798.931667	1796.498047	109.734200
9300.537234	4798.931667	1795.496094	-36.532784
9300.537234	4798.931667	1794.493164	7.975975
9300.537234	4798.931667	1793.491211	81.048019
9300.537234	4798.931667	1792.488281	84.939369
9300.537234	4798.931667	1791.485352	157.907486
9300.537234	4798.931667	1790.482422	140.279388
9300.537234	4798.931667	1789.478516	186.942627
9300.537234	4798.931667	1788.475586	197.836411
9300.537234	4798.931667	1787.471680	142.017288
9300.537234	4798.931667	1786.467773	88.569069
9300.537234	4798.931667	1785.463867	30.349998
9300.537234	4798.931667	1784.459961	38.759369
9300.537234	4798.931667	1783.455078	242.246140
9300.537234	4798.931667	1782.450195	160.144241
9300.537234	4798.931667	1781.445313	13.822695
9300.537234	4798.931667	1780.440430	124.358536
9300.537234	4798.931667	1779.435547	94.540710
9300.537234	4798.931667	1778.429688	131.259476
9300.537234	4798.931667	1777.424805	-83.997467
9300.537234	4798.931667	1776.418945	266.347351
9300.537234	4798.931667	1775.413086	117.602684
9300.537234	4798.931667	1774.406250	25.887213
9300.537234	4798.931667	1773.400391	159.796326
9300.537234	4798.931667	1772.393555	75.167015
9300.537234	4798.931667	1771.386719	-113.920311
9300.537234	4798.931667	1770.379883	93.419029
9300.537234	4798.931667	1769.373047	49.096107
9300.537234	4798.931667	1768.365234	-56.936577
9300.537234	4798.931667	1767.358398	-108.396736
9300.537234	4798.931667	1766.350586	172.174393
9300.537234	4798.931667	1765.342773	68.451141
9300.537234	4798.931667	1764.334961	-63.714966
9300.537234	4798.931667	1763.326172	171.546417
9300.537234	4798.931667	1762.318359	335.590179
9300.537234	4798.931667	1761.309570	172.540771
9300.537234	4798.931667	1760.300781	-30.754389
9300.537234	4798.931667	1759.291016	-94.260040
9300.537234	4798.931667	1758.282227	57.731491
9300.537234	4798.931667	1757.272461	-128.955322
9300.537234	4798.931667	1756.262695	-5.493477
9300.537234	4798.931667	1755.252930	226.762527
9300.537234	4798.931667	1754.243164	127.604698
9300.537234	4798.931667	1753.233398	-33.061691
9300.537234	4798.931667	1752.222656	-151.127319
9300.537234	4798.931667	1751.211914	-169.849945
9300.537234	4798.931667	1750.201172	102.242104
9300.537234	4798.931667	1749.190430	220.529739
9300.537234	4798.931667	1748.179688	-204.904022
9300.537234	4798.931667	1747.167969	-129.212646
9300.537234	4798.931667	1746.156250	76.368706
9300.537234	4798.931667	1745.144531	232.230713
9300.537234	4798.931667	1744.132813	0.653683
9300.537234	4798.931667	1743.121094	-122.244141
9300.537234	4798.931667	1742.108398	-51.532398
9300.537234	4798.931667	1741.095703	189.074432
9300.537234	4798.931667	1740.083008	162.870392
9300.537234	4798.931667	1739.070313	91.809647
9300.537234	4798.931667	1738.057617	-45.312798
9300.537234	4798.931667	1737.043945	58.167679
9300.537234	4798.931667	1736.030273	-232.253250
9300.537234	4798.931667	1735.016602	187.103195
9300.537234	4798.931667	1734.002930	-91.510887
9300.537234	4798.931667	1732.989258	-21.229198
9300.537234	4798.931667	1731.974609	34.850063
9300.537234	4798.931667	1730.959961	31.975664
9300.537234	4798.931667	1729.945313	76.179955
9300.537234	4798.931667	1728.930664	28.486506
9300.537234	4798.931667	1727.916016	-35.704163
9300.537234	4798.931667	1726.900391	182.597519
9300.537234	4798.931667	1725.885742	106.570038
9300.537234	4798.931667	1724.870117	159.965805
9300.537234	4798.931667	1723.853516	102.720451
9300.537234	4798.931667	1722.837891	-203.884842
9300.537234	4798.931667	1721.822266	-25.901545
9300.537234	4798.931667	1720.805664	67.323845
9300.537234	4798.931667	1719.789063	-126.347237
9300.537234	4798.931667	1718.772461	11.460384
9300.537234	4798.931667	1717.754883	38.722408
9300.537234	4798.931667	1716.738281	-39.788403
9300.537234	4798.931667	1715.720703	-64.272224
9300.537234	4798.931667	1714.703125	-32.405537
9300.537234	4798.931667	1713.685547	25.250330
9300.537234	4798.931667	1712.667969	17.112576
9300.537234	4798.931667	1711.649414	-61.479950
9300.537234	4798.931667	1710.630859	-81.397942
9300.537234	4798.931667	1709.612305	-12.167560
9300.537234	4798.931667	1708.593750	-48.568840
9300.537234	4798.931667	1707.575195	116.742188
9300.537234	4798.931667	1706.555664	-112.039276
9300.537234	4798.931667	1705.536133	-66.425385
9300.537234	4798.931667	1704.516602	-65.398323
9300.537234	4798.931667	1703.497070	94.981621
9300.537234	4798.931667	1702.477539	227.152191
9300.537234	4798.931667	1701.457031	-34.379021
9300.537234	4798.931667	1700.437500	-197.446762
9300.537234	4798.931667	1699.416992	180.532257
9300.537234	4798.931667	1698.395508	-106.683968
9300.537234	4798.931667	1697.375000	65.056305
9300.537234	4798.931667	1696.354492	-41.840927
9300.537234	4798.931667	1695.333008	-120.644531
9300.537234	4798.931667	1694.311523	-147.968903
9300.537234	4798.931667	1693.290039	42.252666
9300.537234	4798.931667	1692.267578	-109.111061
9300.537234	4798.931667	1691.246094	57.594849
9300.537234	4798.931667	1690.223633	107.304893
9300.537234	4798.931667	1689.201172	-39.383266
9300.537234	4798.931667	1688.178711	-48.149014
9300.537234	4798.931667	1687.155273	129.991577
9300.537234	4798.931667	1686.132813	251.975906
9300.537234	4798.931667	1685.109375	210.381821
9300.537234	4798.931667	1684.085938	7.643046
9300.537234	4798.931667	1683.062500	101.488434
9300.537234	4798.931667	1682.039063	258.304047
9300.537234	4798.931667	1681.014648	218.978058
9300.537234	4798.931667	1679.990234	158.644424
9300.537234	4798.931667	1678.965820	235.963669
9300.537234	4798.931667	1677.941406	145.282822
9300.537234	4798.931667	1676.916992	364.795624
9300.537234	4798.931667	1675.891602	283.404724
9300.537234	4798.931667	1674.866211	248.651535
9300.537234	4798.931667	1673.840820	155.620361
9300.537234	4798.931667	1672.815430	288.653381
9300.537234	4798.931667	1671.790039	211.921875
9300.537234	4798.931667	1670.763672	72.300171
9300.537234	4798.931667	1669.737305	428.795532
9300.537234	4798.931667	1668.710938	382.293091
9300.537234	4798.931667	1667.684570	522.040344
9300.537234	4798.931667	1666.658203	356.791504
9300.537234	4798.931667	1665.630859	275.364319
9300.537234	4798.931667	1664.603516	359.152802
9300.537234	4798.931667	1663.576172	475.461060
9300.537234	4798.931667	1662.548828	419.594177
9300.537234	4798.931667	1661.520508	454.419617
9300.537234	4798.931667	1660.493164	547.348267
9300.537234	4798.931667	1659.464844	642.544189
9300.537234	4798.931667	1658.436523	565.707275
9300.537234	4798.931667	1657.408203	500.504883
9300.537234	4798.931667	1656.378906	834.895203
9300.537234	4798.931667	1655.350586	878.808899
9300.537234	4798.931667	1654.321289	699.746765
9300.537234	4798.931667	1653.291992	843.478149
9300.537234	4798.931667	1652.261719	780.532471
9300.537234	4798.931667	1651.232422	1137.695801
9300.537234	4798.931667	1650.202148	1297.463135
9300.537234	4798.931667	1649.171875	1014.030640
9300.537234	4798.931667	1648.141602	1050.802002
9300.537234	4798.931667	1647.111328	1198.867432
9300.537234	4798.931667	1646.080078	1182.234985
9300.537234	4798.931667	1645.049805	1341.791382
9300.537234	4798.931667	1644.018555	1380.747437
9300.537234	4798.931667	1642.987305	1514.691895
9300.537234	4798.931667	1641.955078	1444.685425
9300.537234	4798.931667	1640.923828	1444.197754
9300.537234	4798.931667	1639.891602	1399.693481
9300.537234	4798.931667	1638.859375	1739.581909
9300.537234	4798.931667	1637.827148	1590.849487
9300.537234	4798.931667	1636.794922	1601.877808
9300.537234	4798.931667	1635.761719	1555.037964
9300.537234	4798.931667	1634.729492	1357.825317
9300.537234	4798.931667	1633.696289	1401.260986
9300.537234	4798.931667	1632.662109	1414.605469
9300.537234	4798.931667	1631.628906	1222.144897
9300.537234	4798.931667	1630.594727	1272.504150
9300.537234	4798.931667	1629.561523	1117.125610
9300.537234	4798.931667	1628.527344	1206.773071
9300.537234	4798.931667	1627.493164	1032.974487
9300.537234	4798.931667	1626.458008	1180.351196
9300.537234	4798.931667	1625.423828	1184.472656
9300.537234	4798.931667	1624.388672	1456.463745
9300.537234	4798.931667	1623.353516	996.456177
9300.537234	4798.931667	1622.318359	1046.778442
9300.537234	4798.931667	1621.282227	1221.704224
9300.537234	4798.931667	1620.247070	1188.900757
9300.537234	4798.931667	1619.210938	925.402893
9300.537234	4798.931667	1618.174805	1171.764282
9300.537234	4798.931667	1617.137695	1127.457886
9300.537234	4798.931667	1616.101563	1392.138916
9300.537234	4798.931667	1615.064453	1529.930420
9300.537234	4798.931667	1614.027344	1432.585083
9300.537234	4798.931667	1612.990234	1349.111328
9300.537234	4798.931667	1611.953125	1620.474487
9300.537234	4798.931667	1610.916016	1481.729614
9300.537234	4798.931667	1609.877930	1506.550903
9300.537234	4798.931667	1608.839844	1588.935303
9300.537234	4798.931667	1607.801758	1500.941772
9300.537234	4798.931667	1606.763672	1429.104004
9300.537234	4798.931667	1605.724609	1580.512329
9300.537234	4798.931667	1604.685547	1563.919189
9300.537234	4798.931667	1603.646484	1505.938599
9300.537234	4798.931667	1602.607422	1588.281860
9300.537234	4798.931667	1601.568359	1622.318604
9300.537234	4798.931667	1600.528320	1504.617676
9300.537234	4798.931667	1599.489258	1697.277344
9300.537234	4798.931667	1598.449219	1611.807861
9300.537234	4798.931667	1597.408203	1705.592529
9300.537234	4798.931667	1596.368164	1739.635742
9300.537234	4798.931667	1595.327148	1583.047607
9300.537234	4798.931667	1594.287109	1711.277466
9300.537234	4798.931667	1593.246094	1660.394531
9300.537234	4798.931667	1592.204102	1510.844604
9300.537234	4798.931667	1591.163086	1758.393555
9300.537234	4798.931667	1590.121094	1542.376221
9300.537234	4798.931667	1589.079102	1776.087891
9300.537234	4798.931667	1588.037109	1665.692993
9300.537234	4798.931667	1586.995117	1335.223511
9300.537234	4798.931667	1585.953125	1603.287231
9300.537234	4798.931667	1584.910156	1534.304932
9300.537234	4798.931667	1583.867188	1598.292358
9300.537234	4798.931667	1582.824219	1428.562622
9300.537234	4798.931667	1581.781250	1753.749023
9300.537234	4798.931667	1580.737305	1499.348389
9300.537234	4798.931667	1579.693359	1980.150146
9300.537234	4798.931667	1578.649414	1689.219238
9300.537234	4798.931667	1577.605469	1668.536499
9300.537234	4798.931667	1576.561523	1945.409180
9300.537234	4798.931667	1575.516602	1945.320679
9300.537234	4798.931667	1574.472656	1778.260742
