#X		#Y		#Wave		#Intensity
18.551064	5643.973333	1999.946289	-62.483700
18.551064	5643.973333	1998.981445	-39.210079
18.551064	5643.973333	1998.017578	-5.956199
18.551064	5643.973333	1997.052734	-64.562447
18.551064	5643.973333	1996.088867	-93.570457
18.551064	5643.973333	1995.124023	263.725433
18.551064	5643.973333	1994.159180	-60.359375
18.551064	5643.973333	1993.193359	48.882523
18.551064	5643.973333	1992.228516	91.099815
18.551064	5643.973333	1991.262695	-10.402737
18.551064	5643.973333	1990.296875	66.195389
18.551064	5643.973333	1989.331055	-20.673100
18.551064	5643.973333	1988.365234	-60.625374
18.551064	5643.973333	1987.398438	89.779129
18.551064	5643.973333	1986.432617	84.211632
18.551064	5643.973333	1985.465820	-59.931324
18.551064	5643.973333	1984.499023	-92.880692
18.551064	5643.973333	1983.532227	71.813362
18.551064	5643.973333	1982.565430	13.934564
18.551064	5643.973333	1981.597656	52.340370
18.551064	5643.973333	1980.629883	-213.210785
18.551064	5643.973333	1979.662109	10.276546
18.551064	5643.973333	1978.694336	120.001816
18.551064	5643.973333	1977.726563	118.500366
18.551064	5643.973333	1976.758789	153.944183
18.551064	5643.973333	1975.790039	-131.546555
18.551064	5643.973333	1974.821289	106.114861
18.551064	5643.973333	1973.852539	62.365829
18.551064	5643.973333	1972.883789	104.895653
18.551064	5643.973333	1971.915039	-42.554688
18.551064	5643.973333	1970.945313	-17.415461
18.551064	5643.973333	1969.975586	160.497726
18.551064	5643.973333	1969.005859	15.395400
18.551064	5643.973333	1968.036133	45.257557
18.551064	5643.973333	1967.066406	195.785812
18.551064	5643.973333	1966.096680	-72.579994
18.551064	5643.973333	1965.125977	40.862968
18.551064	5643.973333	1964.155273	149.290283
18.551064	5643.973333	1963.184570	70.513702
18.551064	5643.973333	1962.213867	65.571449
18.551064	5643.973333	1961.242188	3.979447
18.551064	5643.973333	1960.271484	-114.223618
18.551064	5643.973333	1959.299805	-23.304024
18.551064	5643.973333	1958.328125	70.005569
18.551064	5643.973333	1957.356445	-18.743210
18.551064	5643.973333	1956.384766	-14.056378
18.551064	5643.973333	1955.412109	49.597076
18.551064	5643.973333	1954.439453	32.085011
18.551064	5643.973333	1953.467773	240.643494
18.551064	5643.973333	1952.495117	-69.338295
18.551064	5643.973333	1951.521484	-35.312016
18.551064	5643.973333	1950.548828	84.644920
18.551064	5643.973333	1949.575195	184.887238
18.551064	5643.973333	1948.601563	-66.023026
18.551064	5643.973333	1947.627930	-56.654812
18.551064	5643.973333	1946.654297	141.671890
18.551064	5643.973333	1945.680664	69.986671
18.551064	5643.973333	1944.706055	57.189922
18.551064	5643.973333	1943.732422	56.651436
18.551064	5643.973333	1942.757813	-7.666207
18.551064	5643.973333	1941.783203	263.952179
18.551064	5643.973333	1940.807617	138.304260
18.551064	5643.973333	1939.833008	-14.265647
18.551064	5643.973333	1938.857422	90.526085
18.551064	5643.973333	1937.881836	-86.500984
18.551064	5643.973333	1936.906250	-153.230713
18.551064	5643.973333	1935.930664	171.940292
18.551064	5643.973333	1934.955078	-17.265453
18.551064	5643.973333	1933.978516	285.711121
18.551064	5643.973333	1933.001953	37.792912
18.551064	5643.973333	1932.025391	24.918171
18.551064	5643.973333	1931.048828	-78.492508
18.551064	5643.973333	1930.072266	-49.753910
18.551064	5643.973333	1929.094727	-94.413582
18.551064	5643.973333	1928.118164	-65.684181
18.551064	5643.973333	1927.140625	126.856094
18.551064	5643.973333	1926.163086	-0.932556
18.551064	5643.973333	1925.184570	66.865105
18.551064	5643.973333	1924.207031	12.452271
18.551064	5643.973333	1923.228516	107.101250
18.551064	5643.973333	1922.250000	121.102768
18.551064	5643.973333	1921.271484	-38.312328
18.551064	5643.973333	1920.292969	-60.913231
18.551064	5643.973333	1919.314453	-100.594162
18.551064	5643.973333	1918.334961	96.522835
18.551064	5643.973333	1917.355469	130.050598
18.551064	5643.973333	1916.375977	51.321400
18.551064	5643.973333	1915.396484	16.540522
18.551064	5643.973333	1914.416992	40.318497
18.551064	5643.973333	1913.436523	76.283180
18.551064	5643.973333	1912.457031	-207.179062
18.551064	5643.973333	1911.476563	-17.586174
18.551064	5643.973333	1910.496094	-5.990562
18.551064	5643.973333	1909.515625	17.789484
18.551064	5643.973333	1908.534180	19.634663
18.551064	5643.973333	1907.552734	-17.493847
18.551064	5643.973333	1906.572266	-35.114403
18.551064	5643.973333	1905.590820	268.712036
18.551064	5643.973333	1904.608398	58.707130
18.551064	5643.973333	1903.626953	-0.288969
18.551064	5643.973333	1902.644531	-68.996414
18.551064	5643.973333	1901.663086	47.262768
18.551064	5643.973333	1900.680664	-109.002090
18.551064	5643.973333	1899.698242	29.118214
18.551064	5643.973333	1898.714844	135.573593
18.551064	5643.973333	1897.732422	54.769444
18.551064	5643.973333	1896.749023	73.669174
18.551064	5643.973333	1895.765625	-21.671618
18.551064	5643.973333	1894.782227	9.394321
18.551064	5643.973333	1893.798828	62.317932
18.551064	5643.973333	1892.814453	-15.955825
18.551064	5643.973333	1891.831055	17.529066
18.551064	5643.973333	1890.846680	-77.699562
18.551064	5643.973333	1889.862305	-308.851837
18.551064	5643.973333	1888.877930	25.672503
18.551064	5643.973333	1887.892578	117.374054
18.551064	5643.973333	1886.908203	184.780014
18.551064	5643.973333	1885.922852	33.814659
18.551064	5643.973333	1884.937500	101.210167
18.551064	5643.973333	1883.952148	141.903671
18.551064	5643.973333	1882.965820	-38.067184
18.551064	5643.973333	1881.980469	36.576664
18.551064	5643.973333	1880.994141	67.560257
18.551064	5643.973333	1880.007813	-71.102081
18.551064	5643.973333	1879.021484	39.841187
18.551064	5643.973333	1878.035156	-173.862305
18.551064	5643.973333	1877.047852	-191.312668
18.551064	5643.973333	1876.061523	-172.434036
18.551064	5643.973333	1875.074219	158.748596
18.551064	5643.973333	1874.086914	-144.396027
18.551064	5643.973333	1873.098633	46.277084
18.551064	5643.973333	1872.111328	-99.461891
18.551064	5643.973333	1871.123047	137.087585
18.551064	5643.973333	1870.135742	8.307031
18.551064	5643.973333	1869.147461	27.083481
18.551064	5643.973333	1868.158203	16.829510
18.551064	5643.973333	1867.169922	-44.191509
18.551064	5643.973333	1866.180664	-66.528145
18.551064	5643.973333	1865.192383	-166.191422
18.551064	5643.973333	1864.203125	111.078644
18.551064	5643.973333	1863.213867	79.035553
18.551064	5643.973333	1862.223633	10.764579
18.551064	5643.973333	1861.234375	43.929543
18.551064	5643.973333	1860.244141	55.340153
18.551064	5643.973333	1859.253906	262.252869
18.551064	5643.973333	1858.263672	-112.541855
18.551064	5643.973333	1857.273438	178.751358
18.551064	5643.973333	1856.282227	95.990166
18.551064	5643.973333	1855.291992	-56.698639
18.551064	5643.973333	1854.300781	-14.012310
18.551064	5643.973333	1853.309570	-38.868183
18.551064	5643.973333	1852.317383	391.876495
18.551064	5643.973333	1851.326172	34.318340
18.551064	5643.973333	1850.333984	-17.089617
18.551064	5643.973333	1849.342773	124.249313
18.551064	5643.973333	1848.350586	5.361320
18.551064	5643.973333	1847.357422	122.516319
18.551064	5643.973333	1846.365234	-155.285599
18.551064	5643.973333	1845.372070	139.969971
18.551064	5643.973333	1844.379883	242.538055
18.551064	5643.973333	1843.386719	106.793335
18.551064	5643.973333	1842.393555	-173.286835
18.551064	5643.973333	1841.399414	-82.816742
18.551064	5643.973333	1840.406250	74.946136
18.551064	5643.973333	1839.412109	-34.303375
18.551064	5643.973333	1838.417969	-102.662056
18.551064	5643.973333	1837.423828	-106.114822
18.551064	5643.973333	1836.429688	-37.489372
18.551064	5643.973333	1835.434570	117.588181
18.551064	5643.973333	1834.440430	-114.215553
18.551064	5643.973333	1833.445313	4.735410
18.551064	5643.973333	1832.450195	207.670609
18.551064	5643.973333	1831.454102	-2.496127
18.551064	5643.973333	1830.458984	121.086586
18.551064	5643.973333	1829.462891	45.371933
18.551064	5643.973333	1828.466797	212.033890
18.551064	5643.973333	1827.470703	13.906919
18.551064	5643.973333	1826.474609	79.700447
18.551064	5643.973333	1825.478516	104.665932
18.551064	5643.973333	1824.481445	148.769791
18.551064	5643.973333	1823.484375	137.684174
18.551064	5643.973333	1822.487305	-46.018135
18.551064	5643.973333	1821.490234	-35.558353
18.551064	5643.973333	1820.493164	-25.135204
18.551064	5643.973333	1819.495117	4.410963
18.551064	5643.973333	1818.498047	79.426376
18.551064	5643.973333	1817.500000	-18.050455
18.551064	5643.973333	1816.500977	-10.178302
18.551064	5643.973333	1815.502930	222.685181
18.551064	5643.973333	1814.504883	60.508183
18.551064	5643.973333	1813.505859	-111.221680
18.551064	5643.973333	1812.506836	154.911331
18.551064	5643.973333	1811.507813	-19.237759
18.551064	5643.973333	1810.508789	-42.685005
18.551064	5643.973333	1809.508789	146.647903
18.551064	5643.973333	1808.508789	29.858515
18.551064	5643.973333	1807.508789	85.172958
18.551064	5643.973333	1806.508789	-36.419895
18.551064	5643.973333	1805.508789	100.045364
18.551064	5643.973333	1804.508789	116.972641
18.551064	5643.973333	1803.507813	95.632462
18.551064	5643.973333	1802.506836	7.395075
18.551064	5643.973333	1801.505859	358.461273
18.551064	5643.973333	1800.504883	198.509415
18.551064	5643.973333	1799.502930	155.517883
18.551064	5643.973333	1798.501953	26.601061
18.551064	5643.973333	1797.500000	-40.284904
18.551064	5643.973333	1796.498047	-40.401329
18.551064	5643.973333	1795.496094	143.072754
18.551064	5643.973333	1794.493164	56.989597
18.551064	5643.973333	1793.491211	-79.162941
18.551064	5643.973333	1792.488281	206.566040
18.551064	5643.973333	1791.485352	-8.299369
18.551064	5643.973333	1790.482422	36.574516
18.551064	5643.973333	1789.478516	157.609131
18.551064	5643.973333	1788.475586	64.203903
18.551064	5643.973333	1787.471680	46.982231
18.551064	5643.973333	1786.467773	113.047531
18.551064	5643.973333	1785.463867	71.925926
18.551064	5643.973333	1784.459961	-66.803719
18.551064	5643.973333	1783.455078	-107.976044
18.551064	5643.973333	1782.450195	155.329956
18.551064	5643.973333	1781.445313	-138.090988
18.551064	5643.973333	1780.440430	201.123215
18.551064	5643.973333	1779.435547	116.940147
18.551064	5643.973333	1778.429688	75.524979
18.551064	5643.973333	1777.424805	-32.467892
18.551064	5643.973333	1776.418945	106.660217
18.551064	5643.973333	1775.413086	-15.656604
18.551064	5643.973333	1774.406250	156.565033
18.551064	5643.973333	1773.400391	22.310970
18.551064	5643.973333	1772.393555	18.648708
18.551064	5643.973333	1771.386719	314.065277
18.551064	5643.973333	1770.379883	70.517601
18.551064	5643.973333	1769.373047	145.010452
18.551064	5643.973333	1768.365234	50.957649
18.551064	5643.973333	1767.358398	101.602493
18.551064	5643.973333	1766.350586	197.234634
18.551064	5643.973333	1765.342773	79.360977
18.551064	5643.973333	1764.334961	248.355469
18.551064	5643.973333	1763.326172	73.517509
18.551064	5643.973333	1762.318359	194.948303
18.551064	5643.973333	1761.309570	95.908783
18.551064	5643.973333	1760.300781	22.915865
18.551064	5643.973333	1759.291016	115.695564
18.551064	5643.973333	1758.282227	-30.789177
18.551064	5643.973333	1757.272461	166.041565
18.551064	5643.973333	1756.262695	175.733261
18.551064	5643.973333	1755.252930	33.892384
18.551064	5643.973333	1754.243164	76.630287
18.551064	5643.973333	1753.233398	79.079819
18.551064	5643.973333	1752.222656	-41.533283
18.551064	5643.973333	1751.211914	-43.901543
18.551064	5643.973333	1750.201172	128.656738
18.551064	5643.973333	1749.190430	225.446350
18.551064	5643.973333	1748.179688	-152.948685
18.551064	5643.973333	1747.167969	-131.875046
18.551064	5643.973333	1746.156250	-110.859955
18.551064	5643.973333	1745.144531	-127.702126
18.551064	5643.973333	1744.132813	53.807545
18.551064	5643.973333	1743.121094	41.561760
18.551064	5643.973333	1742.108398	118.978271
18.551064	5643.973333	1741.095703	-23.213017
18.551064	5643.973333	1740.083008	-49.758045
18.551064	5643.973333	1739.070313	140.740814
18.551064	5643.973333	1738.057617	106.995651
18.551064	5643.973333	1737.043945	-80.109184
18.551064	5643.973333	1736.030273	107.768806
18.551064	5643.973333	1735.016602	52.671806
18.551064	5643.973333	1734.002930	148.416428
18.551064	5643.973333	1732.989258	64.950165
18.551064	5643.973333	1731.974609	7.378871
18.551064	5643.973333	1730.959961	142.973038
18.551064	5643.973333	1729.945313	-48.955578
18.551064	5643.973333	1728.930664	-90.133278
18.551064	5643.973333	1727.916016	-81.896713
18.551064	5643.973333	1726.900391	-45.468327
18.551064	5643.973333	1725.885742	230.989120
18.551064	5643.973333	1724.870117	140.168182
18.551064	5643.973333	1723.853516	185.792633
18.551064	5643.973333	1722.837891	109.034981
18.551064	5643.973333	1721.822266	-50.058723
18.551064	5643.973333	1720.805664	11.894374
18.551064	5643.973333	1719.789063	-137.817108
18.551064	5643.973333	1718.772461	147.344284
18.551064	5643.973333	1717.754883	-28.288521
18.551064	5643.973333	1716.738281	-62.908714
18.551064	5643.973333	1715.720703	-5.948449
18.551064	5643.973333	1714.703125	-35.960648
18.551064	5643.973333	1713.685547	81.939827
18.551064	5643.973333	1712.667969	143.401794
18.551064	5643.973333	1711.649414	108.541222
18.551064	5643.973333	1710.630859	176.919617
18.551064	5643.973333	1709.612305	306.238556
18.551064	5643.973333	1708.593750	-33.756424
18.551064	5643.973333	1707.575195	-216.504349
18.551064	5643.973333	1706.555664	60.427963
18.551064	5643.973333	1705.536133	212.940155
18.551064	5643.973333	1704.516602	-340.283752
18.551064	5643.973333	1703.497070	-51.891708
18.551064	5643.973333	1702.477539	-21.425276
18.551064	5643.973333	1701.457031	90.984154
18.551064	5643.973333	1700.437500	-47.328930
18.551064	5643.973333	1699.416992	-59.164928
18.551064	5643.973333	1698.395508	60.085930
18.551064	5643.973333	1697.375000	-108.700638
18.551064	5643.973333	1696.354492	75.986511
18.551064	5643.973333	1695.333008	-29.634558
18.551064	5643.973333	1694.311523	-13.582704
18.551064	5643.973333	1693.290039	-84.128883
18.551064	5643.973333	1692.267578	11.369689
18.551064	5643.973333	1691.246094	-5.440341
18.551064	5643.973333	1690.223633	8.105952
18.551064	5643.973333	1689.201172	44.988922
18.551064	5643.973333	1688.178711	-72.425644
18.551064	5643.973333	1687.155273	-138.430603
18.551064	5643.973333	1686.132813	78.248917
18.551064	5643.973333	1685.109375	28.525661
18.551064	5643.973333	1684.085938	-9.531968
18.551064	5643.973333	1683.062500	279.273895
18.551064	5643.973333	1682.039063	182.761185
18.551064	5643.973333	1681.014648	18.560806
18.551064	5643.973333	1679.990234	43.409241
18.551064	5643.973333	1678.965820	72.885223
18.551064	5643.973333	1677.941406	-175.258682
18.551064	5643.973333	1676.916992	19.776993
18.551064	5643.973333	1675.891602	-18.470753
18.551064	5643.973333	1674.866211	15.540405
18.551064	5643.973333	1673.840820	326.879456
18.551064	5643.973333	1672.815430	190.643738
18.551064	5643.973333	1671.790039	236.168839
18.551064	5643.973333	1670.763672	263.008301
18.551064	5643.973333	1669.737305	164.046402
18.551064	5643.973333	1668.710938	297.957611
18.551064	5643.973333	1667.684570	31.358797
18.551064	5643.973333	1666.658203	39.507473
18.551064	5643.973333	1665.630859	224.491318
18.551064	5643.973333	1664.603516	244.182953
18.551064	5643.973333	1663.576172	89.374084
18.551064	5643.973333	1662.548828	241.622040
18.551064	5643.973333	1661.520508	268.210754
18.551064	5643.973333	1660.493164	301.757050
18.551064	5643.973333	1659.464844	388.727478
18.551064	5643.973333	1658.436523	275.779022
18.551064	5643.973333	1657.408203	518.373291
18.551064	5643.973333	1656.378906	426.312683
18.551064	5643.973333	1655.350586	160.078491
18.551064	5643.973333	1654.321289	107.574684
18.551064	5643.973333	1653.291992	345.308838
18.551064	5643.973333	1652.261719	267.221069
18.551064	5643.973333	1651.232422	365.554413
18.551064	5643.973333	1650.202148	273.548737
18.551064	5643.973333	1649.171875	248.851303
18.551064	5643.973333	1648.141602	326.216766
18.551064	5643.973333	1647.111328	333.970123
18.551064	5643.973333	1646.080078	550.386414
18.551064	5643.973333	1645.049805	588.217468
18.551064	5643.973333	1644.018555	313.115387
18.551064	5643.973333	1642.987305	552.567200
18.551064	5643.973333	1641.955078	641.312927
18.551064	5643.973333	1640.923828	611.892517
18.551064	5643.973333	1639.891602	598.682495
18.551064	5643.973333	1638.859375	726.724792
18.551064	5643.973333	1637.827148	831.566040
18.551064	5643.973333	1636.794922	621.573242
18.551064	5643.973333	1635.761719	663.900452
18.551064	5643.973333	1634.729492	750.183228
18.551064	5643.973333	1633.696289	630.541443
18.551064	5643.973333	1632.662109	864.805969
18.551064	5643.973333	1631.628906	680.447388
18.551064	5643.973333	1630.594727	611.752563
18.551064	5643.973333	1629.561523	938.367798
18.551064	5643.973333	1628.527344	871.971558
18.551064	5643.973333	1627.493164	821.782471
18.551064	5643.973333	1626.458008	757.749573
18.551064	5643.973333	1625.423828	864.679260
18.551064	5643.973333	1624.388672	1100.884888
18.551064	5643.973333	1623.353516	840.613342
18.551064	5643.973333	1622.318359	922.091919
18.551064	5643.973333	1621.282227	1042.774658
18.551064	5643.973333	1620.247070	1075.750000
18.551064	5643.973333	1619.210938	1113.328613
18.551064	5643.973333	1618.174805	841.826599
18.551064	5643.973333	1617.137695	1024.741943
18.551064	5643.973333	1616.101563	1080.797852
18.551064	5643.973333	1615.064453	1079.209229
18.551064	5643.973333	1614.027344	1043.066528
18.551064	5643.973333	1612.990234	1212.040649
18.551064	5643.973333	1611.953125	993.916382
18.551064	5643.973333	1610.916016	1280.346924
18.551064	5643.973333	1609.877930	1306.440918
18.551064	5643.973333	1608.839844	1189.788452
18.551064	5643.973333	1607.801758	1174.494995
18.551064	5643.973333	1606.763672	1562.016479
18.551064	5643.973333	1605.724609	1318.875488
18.551064	5643.973333	1604.685547	1278.319580
18.551064	5643.973333	1603.646484	1318.314209
18.551064	5643.973333	1602.607422	1112.236328
18.551064	5643.973333	1601.568359	1094.815186
18.551064	5643.973333	1600.528320	1380.880371
18.551064	5643.973333	1599.489258	1464.604126
18.551064	5643.973333	1598.449219	1398.941772
18.551064	5643.973333	1597.408203	1151.816040
18.551064	5643.973333	1596.368164	1233.318970
18.551064	5643.973333	1595.327148	1103.516479
18.551064	5643.973333	1594.287109	1125.358032
18.551064	5643.973333	1593.246094	1002.580078
18.551064	5643.973333	1592.204102	907.420044
18.551064	5643.973333	1591.163086	1230.012695
18.551064	5643.973333	1590.121094	1063.787354
18.551064	5643.973333	1589.079102	1099.535889
18.551064	5643.973333	1588.037109	1158.244507
18.551064	5643.973333	1586.995117	1056.448853
18.551064	5643.973333	1585.953125	1055.609009
18.551064	5643.973333	1584.910156	1066.261841
18.551064	5643.973333	1583.867188	863.817261
18.551064	5643.973333	1582.824219	1122.047485
18.551064	5643.973333	1581.781250	990.770691
18.551064	5643.973333	1580.737305	708.411743
18.551064	5643.973333	1579.693359	996.410645
18.551064	5643.973333	1578.649414	982.123535
18.551064	5643.973333	1577.605469	727.533691
18.551064	5643.973333	1576.561523	1038.380981
18.551064	5643.973333	1575.516602	1108.885498
18.551064	5643.973333	1574.472656	831.683716
18.551064	5643.973333	1573.427734	1012.086975
18.551064	5643.973333	1572.381836	1004.939941
18.551064	5643.973333	1571.336914	936.120911
18.551064	5643.973333	1570.291016	970.238525
18.551064	5643.973333	1569.246094	1004.401184
18.551064	5643.973333	1568.200195	810.090942
18.551064	5643.973333	1567.153320	967.729431
18.551064	5643.973333	1566.107422	1113.946411
18.551064	5643.973333	1565.060547	878.775818
18.551064	5643.973333	1564.013672	979.389160
18.551064	5643.973333	1562.966797	749.013855
18.551064	5643.973333	1561.919922	1007.208069
18.551064	5643.973333	1560.872070	904.808838
18.551064	5643.973333	1559.825195	1010.128723
18.551064	5643.973333	1558.777344	930.696411
18.551064	5643.973333	1557.729492	969.943970
18.551064	5643.973333	1556.680664	867.862854
18.551064	5643.973333	1555.632813	768.168457
18.551064	5643.973333	1554.583984	823.554016
18.551064	5643.973333	1553.535156	860.751099
