#X		#Y		#Wave		#Intensity
119.775532	5543.591667	1999.946289	40.517551
119.775532	5543.591667	1998.981445	-82.965843
119.775532	5543.591667	1998.017578	27.955568
119.775532	5543.591667	1997.052734	141.255630
119.775532	5543.591667	1996.088867	78.541435
119.775532	5543.591667	1995.124023	-51.089939
119.775532	5543.591667	1994.159180	52.084160
119.775532	5543.591667	1993.193359	-52.841156
119.775532	5543.591667	1992.228516	8.098474
119.775532	5543.591667	1991.262695	133.323364
119.775532	5543.591667	1990.296875	-45.961781
119.775532	5543.591667	1989.331055	-42.121494
119.775532	5543.591667	1988.365234	122.477699
119.775532	5543.591667	1987.398438	61.877747
119.775532	5543.591667	1986.432617	8.673386
119.775532	5543.591667	1985.465820	54.347198
119.775532	5543.591667	1984.499023	-125.005295
119.775532	5543.591667	1983.532227	51.588631
119.775532	5543.591667	1982.565430	10.606593
119.775532	5543.591667	1981.597656	-74.875664
119.775532	5543.591667	1980.629883	76.782890
119.775532	5543.591667	1979.662109	94.974358
119.775532	5543.591667	1978.694336	11.875478
119.775532	5543.591667	1977.726563	-34.195904
119.775532	5543.591667	1976.758789	33.263096
119.775532	5543.591667	1975.790039	26.620371
119.775532	5543.591667	1974.821289	-76.289551
119.775532	5543.591667	1973.852539	15.706069
119.775532	5543.591667	1972.883789	85.434273
119.775532	5543.591667	1971.915039	31.794828
119.775532	5543.591667	1970.945313	-85.965218
119.775532	5543.591667	1969.975586	-70.588409
119.775532	5543.591667	1969.005859	8.838153
119.775532	5543.591667	1968.036133	1.953927
119.775532	5543.591667	1967.066406	14.754788
119.775532	5543.591667	1966.096680	57.084259
119.775532	5543.591667	1965.125977	91.981598
119.775532	5543.591667	1964.155273	67.738533
119.775532	5543.591667	1963.184570	-106.706245
119.775532	5543.591667	1962.213867	-101.414566
119.775532	5543.591667	1961.242188	39.213245
119.775532	5543.591667	1960.271484	14.899768
119.775532	5543.591667	1959.299805	-93.076332
119.775532	5543.591667	1958.328125	-90.345146
119.775532	5543.591667	1957.356445	91.893257
119.775532	5543.591667	1956.384766	40.451488
119.775532	5543.591667	1955.412109	148.802536
119.775532	5543.591667	1954.439453	119.448654
119.775532	5543.591667	1953.467773	65.512299
119.775532	5543.591667	1952.495117	119.685318
119.775532	5543.591667	1951.521484	63.272396
119.775532	5543.591667	1950.548828	-27.522158
119.775532	5543.591667	1949.575195	78.151573
119.775532	5543.591667	1948.601563	4.539050
119.775532	5543.591667	1947.627930	-0.329941
119.775532	5543.591667	1946.654297	53.690094
119.775532	5543.591667	1945.680664	24.243662
119.775532	5543.591667	1944.706055	4.605668
119.775532	5543.591667	1943.732422	198.365326
119.775532	5543.591667	1942.757813	87.931808
119.775532	5543.591667	1941.783203	41.277191
119.775532	5543.591667	1940.807617	153.976563
119.775532	5543.591667	1939.833008	107.300362
119.775532	5543.591667	1938.857422	53.275787
119.775532	5543.591667	1937.881836	183.022369
119.775532	5543.591667	1936.906250	55.487720
119.775532	5543.591667	1935.930664	158.220062
119.775532	5543.591667	1934.955078	57.651382
119.775532	5543.591667	1933.978516	18.316101
119.775532	5543.591667	1933.001953	-16.118887
119.775532	5543.591667	1932.025391	69.372612
119.775532	5543.591667	1931.048828	115.670792
119.775532	5543.591667	1930.072266	86.099182
119.775532	5543.591667	1929.094727	29.620838
119.775532	5543.591667	1928.118164	110.110802
119.775532	5543.591667	1927.140625	112.314674
119.775532	5543.591667	1926.163086	-12.616277
119.775532	5543.591667	1925.184570	62.918140
119.775532	5543.591667	1924.207031	96.873573
119.775532	5543.591667	1923.228516	72.166412
119.775532	5543.591667	1922.250000	52.345890
119.775532	5543.591667	1921.271484	-13.880749
119.775532	5543.591667	1920.292969	-9.272567
119.775532	5543.591667	1919.314453	102.753159
119.775532	5543.591667	1918.334961	-9.848999
119.775532	5543.591667	1917.355469	14.257776
119.775532	5543.591667	1916.375977	-64.137764
119.775532	5543.591667	1915.396484	103.899139
119.775532	5543.591667	1914.416992	-111.093765
119.775532	5543.591667	1913.436523	32.486961
119.775532	5543.591667	1912.457031	-45.878063
119.775532	5543.591667	1911.476563	56.181419
119.775532	5543.591667	1910.496094	-129.418671
119.775532	5543.591667	1909.515625	-10.334466
119.775532	5543.591667	1908.534180	101.388504
119.775532	5543.591667	1907.552734	-52.465706
119.775532	5543.591667	1906.572266	-35.773655
119.775532	5543.591667	1905.590820	-45.881474
119.775532	5543.591667	1904.608398	-4.863780
119.775532	5543.591667	1903.626953	-41.760452
119.775532	5543.591667	1902.644531	47.907051
119.775532	5543.591667	1901.663086	54.804913
119.775532	5543.591667	1900.680664	-67.248520
119.775532	5543.591667	1899.698242	29.656300
119.775532	5543.591667	1898.714844	68.151955
119.775532	5543.591667	1897.732422	-109.774071
119.775532	5543.591667	1896.749023	30.828352
119.775532	5543.591667	1895.765625	13.384887
119.775532	5543.591667	1894.782227	22.674875
119.775532	5543.591667	1893.798828	148.582642
119.775532	5543.591667	1892.814453	-24.358879
119.775532	5543.591667	1891.831055	52.926174
119.775532	5543.591667	1890.846680	-20.379700
119.775532	5543.591667	1889.862305	35.014866
119.775532	5543.591667	1888.877930	44.263706
119.775532	5543.591667	1887.892578	70.491997
119.775532	5543.591667	1886.908203	159.797104
119.775532	5543.591667	1885.922852	108.351692
119.775532	5543.591667	1884.937500	71.475471
119.775532	5543.591667	1883.952148	-11.469265
119.775532	5543.591667	1882.965820	-38.620552
119.775532	5543.591667	1881.980469	-17.279455
119.775532	5543.591667	1880.994141	-88.056053
119.775532	5543.591667	1880.007813	-10.987106
119.775532	5543.591667	1879.021484	148.426880
119.775532	5543.591667	1878.035156	38.888046
119.775532	5543.591667	1877.047852	-94.835442
119.775532	5543.591667	1876.061523	74.178040
119.775532	5543.591667	1875.074219	49.437485
119.775532	5543.591667	1874.086914	-23.710075
119.775532	5543.591667	1873.098633	26.591393
119.775532	5543.591667	1872.111328	11.539400
119.775532	5543.591667	1871.123047	49.710785
119.775532	5543.591667	1870.135742	-37.912266
119.775532	5543.591667	1869.147461	-149.691895
119.775532	5543.591667	1868.158203	-75.258530
119.775532	5543.591667	1867.169922	54.745033
119.775532	5543.591667	1866.180664	-83.591225
119.775532	5543.591667	1865.192383	-74.470154
119.775532	5543.591667	1864.203125	-62.942917
119.775532	5543.591667	1863.213867	86.265274
119.775532	5543.591667	1862.223633	109.822876
119.775532	5543.591667	1861.234375	-23.588160
119.775532	5543.591667	1860.244141	188.283707
119.775532	5543.591667	1859.253906	-116.483521
119.775532	5543.591667	1858.263672	88.075920
119.775532	5543.591667	1857.273438	-4.232847
119.775532	5543.591667	1856.282227	-26.552908
119.775532	5543.591667	1855.291992	-157.407364
119.775532	5543.591667	1854.300781	18.045612
119.775532	5543.591667	1853.309570	2.951416
119.775532	5543.591667	1852.317383	240.972122
119.775532	5543.591667	1851.326172	158.345886
119.775532	5543.591667	1850.333984	61.285107
119.775532	5543.591667	1849.342773	87.130486
119.775532	5543.591667	1848.350586	79.234535
119.775532	5543.591667	1847.357422	121.910156
119.775532	5543.591667	1846.365234	51.393600
119.775532	5543.591667	1845.372070	103.676498
119.775532	5543.591667	1844.379883	110.202156
119.775532	5543.591667	1843.386719	-30.082258
119.775532	5543.591667	1842.393555	10.138140
119.775532	5543.591667	1841.399414	26.278782
119.775532	5543.591667	1840.406250	102.538857
119.775532	5543.591667	1839.412109	15.239047
119.775532	5543.591667	1838.417969	31.350979
119.775532	5543.591667	1837.423828	35.430737
119.775532	5543.591667	1836.429688	-66.246849
119.775532	5543.591667	1835.434570	65.190659
119.775532	5543.591667	1834.440430	21.192499
119.775532	5543.591667	1833.445313	104.509476
119.775532	5543.591667	1832.450195	34.087852
119.775532	5543.591667	1831.454102	50.123775
119.775532	5543.591667	1830.458984	154.974258
119.775532	5543.591667	1829.462891	77.358788
119.775532	5543.591667	1828.466797	112.554718
119.775532	5543.591667	1827.470703	-51.412621
119.775532	5543.591667	1826.474609	67.739891
119.775532	5543.591667	1825.478516	45.334457
119.775532	5543.591667	1824.481445	-53.807335
119.775532	5543.591667	1823.484375	-71.403221
119.775532	5543.591667	1822.487305	136.322617
119.775532	5543.591667	1821.490234	101.905754
119.775532	5543.591667	1820.493164	-40.332600
119.775532	5543.591667	1819.495117	92.977959
119.775532	5543.591667	1818.498047	-85.149643
119.775532	5543.591667	1817.500000	103.184113
119.775532	5543.591667	1816.500977	157.353180
119.775532	5543.591667	1815.502930	41.529682
119.775532	5543.591667	1814.504883	-16.815878
119.775532	5543.591667	1813.505859	101.931473
119.775532	5543.591667	1812.506836	201.485229
119.775532	5543.591667	1811.507813	-2.801154
119.775532	5543.591667	1810.508789	46.493656
119.775532	5543.591667	1809.508789	12.068601
119.775532	5543.591667	1808.508789	37.416016
119.775532	5543.591667	1807.508789	84.257530
119.775532	5543.591667	1806.508789	11.581362
119.775532	5543.591667	1805.508789	51.224869
119.775532	5543.591667	1804.508789	-4.712396
119.775532	5543.591667	1803.507813	-27.200468
119.775532	5543.591667	1802.506836	36.279404
119.775532	5543.591667	1801.505859	104.501099
119.775532	5543.591667	1800.504883	50.945526
119.775532	5543.591667	1799.502930	-21.694290
119.775532	5543.591667	1798.501953	-44.202976
119.775532	5543.591667	1797.500000	-45.242786
119.775532	5543.591667	1796.498047	-105.924309
119.775532	5543.591667	1795.496094	43.275852
119.775532	5543.591667	1794.493164	211.482819
119.775532	5543.591667	1793.491211	2.954532
119.775532	5543.591667	1792.488281	-83.947411
119.775532	5543.591667	1791.485352	200.929626
119.775532	5543.591667	1790.482422	92.560242
119.775532	5543.591667	1789.478516	208.142731
119.775532	5543.591667	1788.475586	109.320900
119.775532	5543.591667	1787.471680	-10.906543
119.775532	5543.591667	1786.467773	35.557926
119.775532	5543.591667	1785.463867	-58.444901
119.775532	5543.591667	1784.459961	92.706535
119.775532	5543.591667	1783.455078	3.465904
119.775532	5543.591667	1782.450195	76.020103
119.775532	5543.591667	1781.445313	-39.367214
119.775532	5543.591667	1780.440430	144.918198
119.775532	5543.591667	1779.435547	217.375351
119.775532	5543.591667	1778.429688	54.451519
119.775532	5543.591667	1777.424805	55.576809
119.775532	5543.591667	1776.418945	139.859161
119.775532	5543.591667	1775.413086	19.778534
119.775532	5543.591667	1774.406250	115.890572
119.775532	5543.591667	1773.400391	19.589308
119.775532	5543.591667	1772.393555	56.283428
119.775532	5543.591667	1771.386719	57.343044
119.775532	5543.591667	1770.379883	96.369728
119.775532	5543.591667	1769.373047	95.028511
119.775532	5543.591667	1768.365234	41.476578
119.775532	5543.591667	1767.358398	73.337570
119.775532	5543.591667	1766.350586	36.392635
119.775532	5543.591667	1765.342773	18.422588
119.775532	5543.591667	1764.334961	-4.292280
119.775532	5543.591667	1763.326172	-69.678322
119.775532	5543.591667	1762.318359	21.371117
119.775532	5543.591667	1761.309570	74.461311
119.775532	5543.591667	1760.300781	120.414154
119.775532	5543.591667	1759.291016	92.910217
119.775532	5543.591667	1758.282227	81.986374
119.775532	5543.591667	1757.272461	-52.066582
119.775532	5543.591667	1756.262695	45.913605
119.775532	5543.591667	1755.252930	-50.232216
119.775532	5543.591667	1754.243164	71.354393
119.775532	5543.591667	1753.233398	-100.488167
119.775532	5543.591667	1752.222656	-52.289337
119.775532	5543.591667	1751.211914	50.276287
119.775532	5543.591667	1750.201172	13.284422
119.775532	5543.591667	1749.190430	-85.169670
119.775532	5543.591667	1748.179688	64.588356
119.775532	5543.591667	1747.167969	-78.760513
119.775532	5543.591667	1746.156250	-18.867392
119.775532	5543.591667	1745.144531	24.457706
119.775532	5543.591667	1744.132813	37.052723
119.775532	5543.591667	1743.121094	94.500229
119.775532	5543.591667	1742.108398	-27.518833
119.775532	5543.591667	1741.095703	15.734612
119.775532	5543.591667	1740.083008	4.681520
119.775532	5543.591667	1739.070313	36.096363
119.775532	5543.591667	1738.057617	50.975788
119.775532	5543.591667	1737.043945	127.164284
119.775532	5543.591667	1736.030273	198.598236
119.775532	5543.591667	1735.016602	-107.253059
119.775532	5543.591667	1734.002930	-123.041382
119.775532	5543.591667	1732.989258	151.066849
119.775532	5543.591667	1731.974609	57.451717
119.775532	5543.591667	1730.959961	39.256214
119.775532	5543.591667	1729.945313	-99.074280
119.775532	5543.591667	1728.930664	-46.597301
119.775532	5543.591667	1727.916016	-10.631132
119.775532	5543.591667	1726.900391	135.958221
119.775532	5543.591667	1725.885742	-14.087705
119.775532	5543.591667	1724.870117	24.177696
119.775532	5543.591667	1723.853516	57.711521
119.775532	5543.591667	1722.837891	53.588848
119.775532	5543.591667	1721.822266	-94.009460
119.775532	5543.591667	1720.805664	-41.684303
119.775532	5543.591667	1719.789063	59.985699
119.775532	5543.591667	1718.772461	-2.933432
119.775532	5543.591667	1717.754883	-25.886362
119.775532	5543.591667	1716.738281	19.306559
119.775532	5543.591667	1715.720703	40.979053
119.775532	5543.591667	1714.703125	22.706354
119.775532	5543.591667	1713.685547	25.568644
119.775532	5543.591667	1712.667969	-9.143445
119.775532	5543.591667	1711.649414	-250.428802
119.775532	5543.591667	1710.630859	127.981697
119.775532	5543.591667	1709.612305	173.029068
119.775532	5543.591667	1708.593750	112.477592
119.775532	5543.591667	1707.575195	-74.722923
119.775532	5543.591667	1706.555664	19.564375
119.775532	5543.591667	1705.536133	144.290756
119.775532	5543.591667	1704.516602	-7.665245
119.775532	5543.591667	1703.497070	-126.755165
119.775532	5543.591667	1702.477539	98.675407
119.775532	5543.591667	1701.457031	92.058228
119.775532	5543.591667	1700.437500	10.480359
119.775532	5543.591667	1699.416992	-61.706543
119.775532	5543.591667	1698.395508	72.187576
119.775532	5543.591667	1697.375000	56.193169
119.775532	5543.591667	1696.354492	-15.976768
119.775532	5543.591667	1695.333008	-76.426140
119.775532	5543.591667	1694.311523	-1.148439
119.775532	5543.591667	1693.290039	57.720238
119.775532	5543.591667	1692.267578	142.286438
119.775532	5543.591667	1691.246094	86.510811
119.775532	5543.591667	1690.223633	9.706898
119.775532	5543.591667	1689.201172	-39.020630
119.775532	5543.591667	1688.178711	26.784428
119.775532	5543.591667	1687.155273	148.637283
119.775532	5543.591667	1686.132813	162.976685
119.775532	5543.591667	1685.109375	-23.572355
119.775532	5543.591667	1684.085938	63.178852
119.775532	5543.591667	1683.062500	191.920883
119.775532	5543.591667	1682.039063	33.476627
119.775532	5543.591667	1681.014648	45.466789
119.775532	5543.591667	1679.990234	15.446264
119.775532	5543.591667	1678.965820	155.747726
119.775532	5543.591667	1677.941406	104.718002
119.775532	5543.591667	1676.916992	-6.930831
119.775532	5543.591667	1675.891602	161.264191
119.775532	5543.591667	1674.866211	17.001549
119.775532	5543.591667	1673.840820	133.844864
119.775532	5543.591667	1672.815430	26.925161
119.775532	5543.591667	1671.790039	71.489670
119.775532	5543.591667	1670.763672	202.223038
119.775532	5543.591667	1669.737305	-21.107393
119.775532	5543.591667	1668.710938	11.790518
119.775532	5543.591667	1667.684570	126.158638
119.775532	5543.591667	1666.658203	224.188049
119.775532	5543.591667	1665.630859	103.416924
119.775532	5543.591667	1664.603516	26.899706
119.775532	5543.591667	1663.576172	152.802582
119.775532	5543.591667	1662.548828	139.103729
119.775532	5543.591667	1661.520508	90.525444
119.775532	5543.591667	1660.493164	204.717422
119.775532	5543.591667	1659.464844	165.443375
119.775532	5543.591667	1658.436523	140.129333
119.775532	5543.591667	1657.408203	33.498604
119.775532	5543.591667	1656.378906	82.560089
119.775532	5543.591667	1655.350586	119.992302
119.775532	5543.591667	1654.321289	97.029198
119.775532	5543.591667	1653.291992	-9.510159
119.775532	5543.591667	1652.261719	174.163437
119.775532	5543.591667	1651.232422	76.936958
119.775532	5543.591667	1650.202148	160.745071
119.775532	5543.591667	1649.171875	242.202744
119.775532	5543.591667	1648.141602	77.753998
119.775532	5543.591667	1647.111328	284.434174
119.775532	5543.591667	1646.080078	89.900139
119.775532	5543.591667	1645.049805	266.365540
119.775532	5543.591667	1644.018555	141.449127
119.775532	5543.591667	1642.987305	313.204346
119.775532	5543.591667	1641.955078	253.203629
119.775532	5543.591667	1640.923828	471.206451
119.775532	5543.591667	1639.891602	239.821365
119.775532	5543.591667	1638.859375	341.968506
119.775532	5543.591667	1637.827148	92.185165
119.775532	5543.591667	1636.794922	113.316711
119.775532	5543.591667	1635.761719	247.837494
119.775532	5543.591667	1634.729492	181.016678
119.775532	5543.591667	1633.696289	158.176285
119.775532	5543.591667	1632.662109	234.799423
119.775532	5543.591667	1631.628906	165.719208
119.775532	5543.591667	1630.594727	263.129272
119.775532	5543.591667	1629.561523	203.327026
119.775532	5543.591667	1628.527344	286.836243
119.775532	5543.591667	1627.493164	118.462204
119.775532	5543.591667	1626.458008	243.546982
119.775532	5543.591667	1625.423828	299.301056
119.775532	5543.591667	1624.388672	267.284821
119.775532	5543.591667	1623.353516	184.493500
119.775532	5543.591667	1622.318359	161.758347
119.775532	5543.591667	1621.282227	-8.670363
119.775532	5543.591667	1620.247070	167.097473
119.775532	5543.591667	1619.210938	213.608170
119.775532	5543.591667	1618.174805	133.246567
119.775532	5543.591667	1617.137695	140.554016
119.775532	5543.591667	1616.101563	217.039169
119.775532	5543.591667	1615.064453	196.680588
119.775532	5543.591667	1614.027344	236.261948
119.775532	5543.591667	1612.990234	301.183838
119.775532	5543.591667	1611.953125	264.718414
119.775532	5543.591667	1610.916016	117.711578
119.775532	5543.591667	1609.877930	141.188599
119.775532	5543.591667	1608.839844	302.817444
119.775532	5543.591667	1607.801758	280.225708
119.775532	5543.591667	1606.763672	156.380890
119.775532	5543.591667	1605.724609	278.817596
119.775532	5543.591667	1604.685547	306.886810
119.775532	5543.591667	1603.646484	341.855377
119.775532	5543.591667	1602.607422	176.734619
119.775532	5543.591667	1601.568359	239.328491
119.775532	5543.591667	1600.528320	166.268311
119.775532	5543.591667	1599.489258	201.279221
119.775532	5543.591667	1598.449219	192.622314
119.775532	5543.591667	1597.408203	243.714294
119.775532	5543.591667	1596.368164	322.366150
119.775532	5543.591667	1595.327148	371.139343
119.775532	5543.591667	1594.287109	227.022537
119.775532	5543.591667	1593.246094	496.215424
119.775532	5543.591667	1592.204102	368.216736
119.775532	5543.591667	1591.163086	302.245056
119.775532	5543.591667	1590.121094	353.326813
119.775532	5543.591667	1589.079102	257.584290
119.775532	5543.591667	1588.037109	393.541595
119.775532	5543.591667	1586.995117	435.441101
119.775532	5543.591667	1585.953125	410.849823
119.775532	5543.591667	1584.910156	218.947205
119.775532	5543.591667	1583.867188	402.983368
119.775532	5543.591667	1582.824219	195.145523
119.775532	5543.591667	1581.781250	221.071503
119.775532	5543.591667	1580.737305	256.160492
119.775532	5543.591667	1579.693359	208.811050
119.775532	5543.591667	1578.649414	241.628281
119.775532	5543.591667	1577.605469	356.853088
119.775532	5543.591667	1576.561523	256.916809
119.775532	5543.591667	1575.516602	115.845085
119.775532	5543.591667	1574.472656	231.071915
119.775532	5543.591667	1573.427734	403.448334
119.775532	5543.591667	1572.381836	216.737274
119.775532	5543.591667	1571.336914	297.624512
119.775532	5543.591667	1570.291016	417.354248
119.775532	5543.591667	1569.246094	431.922821
119.775532	5543.591667	1568.200195	599.596924
119.775532	5543.591667	1567.153320	403.969086
119.775532	5543.591667	1566.107422	377.463196
119.775532	5543.591667	1565.060547	357.832916
119.775532	5543.591667	1564.013672	399.875000
119.775532	5543.591667	1562.966797	307.232147
119.775532	5543.591667	1561.919922	467.983124
119.775532	5543.591667	1560.872070	443.852570
