#X		#Y		#Wave		#Intensity
30693.464628	-3124.032500	1999.980469	3.444295
30693.464628	-3124.032500	1999.016602	-90.358009
30693.464628	-3124.032500	1998.052734	20.253826
30693.464628	-3124.032500	1997.087891	-270.651306
30693.464628	-3124.032500	1996.123047	-51.073910
30693.464628	-3124.032500	1995.158203	-133.825348
30693.464628	-3124.032500	1994.193359	-110.074394
30693.464628	-3124.032500	1993.228516	37.455536
30693.464628	-3124.032500	1992.262695	140.341217
30693.464628	-3124.032500	1991.297852	45.122311
30693.464628	-3124.032500	1990.332031	-17.912106
30693.464628	-3124.032500	1989.366211	-103.224861
30693.464628	-3124.032500	1988.399414	-124.207870
30693.464628	-3124.032500	1987.433594	99.659393
30693.464628	-3124.032500	1986.466797	-54.966873
30693.464628	-3124.032500	1985.500977	156.375488
30693.464628	-3124.032500	1984.534180	36.340622
30693.464628	-3124.032500	1983.567383	165.958344
30693.464628	-3124.032500	1982.599609	149.696121
30693.464628	-3124.032500	1981.632813	101.278244
30693.464628	-3124.032500	1980.665039	282.589203
30693.464628	-3124.032500	1979.697266	105.666901
30693.464628	-3124.032500	1978.729492	-283.594330
30693.464628	-3124.032500	1977.761719	-124.637962
30693.464628	-3124.032500	1976.792969	98.407707
30693.464628	-3124.032500	1975.825195	111.546921
30693.464628	-3124.032500	1974.856445	228.288910
30693.464628	-3124.032500	1973.887695	199.390686
30693.464628	-3124.032500	1972.918945	34.801468
30693.464628	-3124.032500	1971.949219	89.734741
30693.464628	-3124.032500	1970.980469	-37.859455
30693.464628	-3124.032500	1970.010742	233.939972
30693.464628	-3124.032500	1969.041016	128.484085
30693.464628	-3124.032500	1968.071289	25.493723
30693.464628	-3124.032500	1967.101563	134.404556
30693.464628	-3124.032500	1966.130859	218.607697
30693.464628	-3124.032500	1965.161133	-14.985291
30693.464628	-3124.032500	1964.190430	17.431122
30693.464628	-3124.032500	1963.219727	-43.758438
30693.464628	-3124.032500	1962.249023	350.438446
30693.464628	-3124.032500	1961.277344	451.580750
30693.464628	-3124.032500	1960.306641	11.291438
30693.464628	-3124.032500	1959.334961	240.323013
30693.464628	-3124.032500	1958.363281	245.396317
30693.464628	-3124.032500	1957.391602	112.708893
30693.464628	-3124.032500	1956.419922	-108.481133
30693.464628	-3124.032500	1955.447266	-137.860977
30693.464628	-3124.032500	1954.474609	-388.479156
30693.464628	-3124.032500	1953.501953	-91.014992
30693.464628	-3124.032500	1952.529297	262.820892
30693.464628	-3124.032500	1951.556641	85.868744
30693.464628	-3124.032500	1950.583984	130.001953
30693.464628	-3124.032500	1949.610352	230.574203
30693.464628	-3124.032500	1948.636719	-34.751827
30693.464628	-3124.032500	1947.663086	-64.350761
30693.464628	-3124.032500	1946.689453	92.559074
30693.464628	-3124.032500	1945.715820	-148.143021
30693.464628	-3124.032500	1944.741211	143.603561
30693.464628	-3124.032500	1943.767578	135.952301
30693.464628	-3124.032500	1942.792969	15.465337
30693.464628	-3124.032500	1941.818359	-112.360420
30693.464628	-3124.032500	1940.842773	78.539429
30693.464628	-3124.032500	1939.868164	26.677998
30693.464628	-3124.032500	1938.892578	-59.496067
30693.464628	-3124.032500	1937.916992	82.203720
30693.464628	-3124.032500	1936.941406	-94.640160
30693.464628	-3124.032500	1935.965820	-99.996010
30693.464628	-3124.032500	1934.990234	107.675682
30693.464628	-3124.032500	1934.013672	175.689148
30693.464628	-3124.032500	1933.037109	35.582569
30693.464628	-3124.032500	1932.060547	-18.836958
30693.464628	-3124.032500	1931.083984	-9.635393
30693.464628	-3124.032500	1930.107422	43.576389
30693.464628	-3124.032500	1929.129883	167.686707
30693.464628	-3124.032500	1928.153320	296.615570
30693.464628	-3124.032500	1927.175781	132.059036
30693.464628	-3124.032500	1926.198242	79.996887
30693.464628	-3124.032500	1925.219727	-138.272491
30693.464628	-3124.032500	1924.242188	-197.635590
30693.464628	-3124.032500	1923.263672	33.765614
30693.464628	-3124.032500	1922.285156	299.262512
30693.464628	-3124.032500	1921.306641	-304.869080
30693.464628	-3124.032500	1920.328125	-361.790833
30693.464628	-3124.032500	1919.349609	189.235947
30693.464628	-3124.032500	1918.370117	-128.984665
30693.464628	-3124.032500	1917.391602	189.897430
30693.464628	-3124.032500	1916.412109	-86.754181
30693.464628	-3124.032500	1915.431641	122.183907
30693.464628	-3124.032500	1914.452148	91.979805
30693.464628	-3124.032500	1913.472656	164.201233
30693.464628	-3124.032500	1912.492188	36.437302
30693.464628	-3124.032500	1911.511719	171.998062
30693.464628	-3124.032500	1910.531250	-80.057518
30693.464628	-3124.032500	1909.550781	-76.150948
30693.464628	-3124.032500	1908.569336	39.822422
30693.464628	-3124.032500	1907.588867	-80.562462
30693.464628	-3124.032500	1906.607422	183.913101
30693.464628	-3124.032500	1905.625977	-14.403683
30693.464628	-3124.032500	1904.644531	-37.358189
30693.464628	-3124.032500	1903.662109	385.152191
30693.464628	-3124.032500	1902.680664	16.507168
30693.464628	-3124.032500	1901.698242	168.724121
30693.464628	-3124.032500	1900.715820	41.091667
30693.464628	-3124.032500	1899.733398	71.604256
30693.464628	-3124.032500	1898.750000	-199.469589
30693.464628	-3124.032500	1897.767578	93.660072
30693.464628	-3124.032500	1896.784180	111.959679
30693.464628	-3124.032500	1895.800781	74.338974
30693.464628	-3124.032500	1894.817383	-109.088509
30693.464628	-3124.032500	1893.833984	28.265350
30693.464628	-3124.032500	1892.850586	-342.155853
30693.464628	-3124.032500	1891.866211	-27.525120
30693.464628	-3124.032500	1890.881836	-52.989346
30693.464628	-3124.032500	1889.897461	57.510269
30693.464628	-3124.032500	1888.913086	99.991493
30693.464628	-3124.032500	1887.927734	-100.248039
30693.464628	-3124.032500	1886.943359	-217.922195
30693.464628	-3124.032500	1885.958008	-185.140991
30693.464628	-3124.032500	1884.972656	201.759201
30693.464628	-3124.032500	1883.987305	183.505112
30693.464628	-3124.032500	1883.001953	-94.192184
30693.464628	-3124.032500	1882.015625	149.421860
30693.464628	-3124.032500	1881.029297	-38.498871
30693.464628	-3124.032500	1880.042969	25.670734
30693.464628	-3124.032500	1879.056641	-62.832893
30693.464628	-3124.032500	1878.070313	-42.300682
30693.464628	-3124.032500	1877.083984	-43.580204
30693.464628	-3124.032500	1876.096680	-32.758801
30693.464628	-3124.032500	1875.109375	271.002960
30693.464628	-3124.032500	1874.122070	-95.869133
30693.464628	-3124.032500	1873.134766	164.214844
30693.464628	-3124.032500	1872.146484	49.138191
30693.464628	-3124.032500	1871.159180	-189.285538
30693.464628	-3124.032500	1870.170898	-272.821045
30693.464628	-3124.032500	1869.182617	-114.496124
30693.464628	-3124.032500	1868.194336	-86.804932
30693.464628	-3124.032500	1867.205078	-141.321259
30693.464628	-3124.032500	1866.216797	-258.669037
30693.464628	-3124.032500	1865.227539	30.002148
30693.464628	-3124.032500	1864.238281	-58.353081
30693.464628	-3124.032500	1863.249023	189.091400
30693.464628	-3124.032500	1862.259766	13.778875
30693.464628	-3124.032500	1861.269531	331.131531
30693.464628	-3124.032500	1860.279297	76.176277
30693.464628	-3124.032500	1859.290039	-0.071746
30693.464628	-3124.032500	1858.298828	-155.935760
30693.464628	-3124.032500	1857.308594	-14.961868
30693.464628	-3124.032500	1856.318359	-180.431076
30693.464628	-3124.032500	1855.327148	28.016201
30693.464628	-3124.032500	1854.335938	328.018158
30693.464628	-3124.032500	1853.344727	-143.653854
30693.464628	-3124.032500	1852.353516	-84.816399
30693.464628	-3124.032500	1851.362305	46.297955
30693.464628	-3124.032500	1850.370117	8.673707
30693.464628	-3124.032500	1849.377930	-151.818527
30693.464628	-3124.032500	1848.385742	-66.557838
30693.464628	-3124.032500	1847.393555	201.699722
30693.464628	-3124.032500	1846.401367	94.207886
30693.464628	-3124.032500	1845.408203	92.677612
30693.464628	-3124.032500	1844.415039	-216.959930
30693.464628	-3124.032500	1843.421875	156.974731
30693.464628	-3124.032500	1842.428711	-142.954193
30693.464628	-3124.032500	1841.435547	-178.159027
30693.464628	-3124.032500	1840.441406	48.809399
30693.464628	-3124.032500	1839.448242	104.942619
30693.464628	-3124.032500	1838.454102	158.639191
30693.464628	-3124.032500	1837.459961	-153.081818
30693.464628	-3124.032500	1836.464844	95.299034
30693.464628	-3124.032500	1835.470703	45.603390
30693.464628	-3124.032500	1834.475586	447.589081
30693.464628	-3124.032500	1833.480469	44.722477
30693.464628	-3124.032500	1832.485352	43.061855
30693.464628	-3124.032500	1831.490234	-193.924332
30693.464628	-3124.032500	1830.495117	140.529251
30693.464628	-3124.032500	1829.499023	-12.401896
30693.464628	-3124.032500	1828.502930	7.492777
30693.464628	-3124.032500	1827.506836	3.373094
30693.464628	-3124.032500	1826.510742	-84.722214
30693.464628	-3124.032500	1825.513672	122.210426
30693.464628	-3124.032500	1824.517578	-107.385986
30693.464628	-3124.032500	1823.520508	-3.652440
30693.464628	-3124.032500	1822.523438	23.316967
30693.464628	-3124.032500	1821.526367	52.658592
30693.464628	-3124.032500	1820.529297	0.500981
30693.464628	-3124.032500	1819.531250	1.052660
30693.464628	-3124.032500	1818.533203	209.973465
30693.464628	-3124.032500	1817.535156	133.813828
30693.464628	-3124.032500	1816.537109	-88.389557
30693.464628	-3124.032500	1815.539063	146.706696
30693.464628	-3124.032500	1814.540039	-37.157753
30693.464628	-3124.032500	1813.541992	216.944794
30693.464628	-3124.032500	1812.542969	-129.597794
30693.464628	-3124.032500	1811.543945	165.052185
30693.464628	-3124.032500	1810.543945	50.599140
30693.464628	-3124.032500	1809.544922	129.853699
30693.464628	-3124.032500	1808.544922	122.990715
30693.464628	-3124.032500	1807.544922	-158.777084
30693.464628	-3124.032500	1806.544922	-17.457935
30693.464628	-3124.032500	1805.544922	150.066910
30693.464628	-3124.032500	1804.544922	-107.726433
30693.464628	-3124.032500	1803.543945	71.649506
30693.464628	-3124.032500	1802.542969	14.514980
30693.464628	-3124.032500	1801.541992	103.021904
30693.464628	-3124.032500	1800.541016	41.078049
30693.464628	-3124.032500	1799.539063	208.256699
30693.464628	-3124.032500	1798.538086	229.781082
30693.464628	-3124.032500	1797.536133	29.397762
30693.464628	-3124.032500	1796.534180	146.309937
30693.464628	-3124.032500	1795.532227	-46.885159
30693.464628	-3124.032500	1794.529297	108.092636
30693.464628	-3124.032500	1793.527344	-85.078117
30693.464628	-3124.032500	1792.524414	-175.711670
30693.464628	-3124.032500	1791.521484	-70.928902
30693.464628	-3124.032500	1790.518555	148.148651
30693.464628	-3124.032500	1789.514648	24.082260
30693.464628	-3124.032500	1788.511719	104.857414
30693.464628	-3124.032500	1787.507813	54.602932
30693.464628	-3124.032500	1786.503906	132.897278
30693.464628	-3124.032500	1785.500000	68.310349
30693.464628	-3124.032500	1784.496094	-72.443466
30693.464628	-3124.032500	1783.491211	146.122711
30693.464628	-3124.032500	1782.486328	-54.133217
30693.464628	-3124.032500	1781.481445	-213.912857
30693.464628	-3124.032500	1780.476563	6.830222
30693.464628	-3124.032500	1779.471680	-217.166122
30693.464628	-3124.032500	1778.465820	174.580933
30693.464628	-3124.032500	1777.460938	-51.809628
30693.464628	-3124.032500	1776.455078	73.540321
30693.464628	-3124.032500	1775.449219	-76.792336
30693.464628	-3124.032500	1774.442383	12.809845
30693.464628	-3124.032500	1773.436523	171.212250
30693.464628	-3124.032500	1772.429688	144.306381
30693.464628	-3124.032500	1771.422852	-136.649063
30693.464628	-3124.032500	1770.416016	-9.281457
30693.464628	-3124.032500	1769.409180	144.104095
30693.464628	-3124.032500	1768.402344	166.893906
30693.464628	-3124.032500	1767.394531	469.556763
30693.464628	-3124.032500	1766.386719	468.476501
30693.464628	-3124.032500	1765.378906	-28.255482
30693.464628	-3124.032500	1764.371094	-57.774315
30693.464628	-3124.032500	1763.362305	-92.066475
30693.464628	-3124.032500	1762.354492	-147.718842
30693.464628	-3124.032500	1761.345703	-151.262573
30693.464628	-3124.032500	1760.336914	60.739189
30693.464628	-3124.032500	1759.328125	-47.149467
30693.464628	-3124.032500	1758.318359	34.412926
30693.464628	-3124.032500	1757.308594	59.072353
30693.464628	-3124.032500	1756.299805	192.574585
30693.464628	-3124.032500	1755.290039	146.098907
30693.464628	-3124.032500	1754.279297	-16.357090
30693.464628	-3124.032500	1753.269531	93.286507
30693.464628	-3124.032500	1752.258789	-201.658432
30693.464628	-3124.032500	1751.249023	165.671417
30693.464628	-3124.032500	1750.238281	-126.902496
30693.464628	-3124.032500	1749.226563	287.459229
30693.464628	-3124.032500	1748.215820	-59.487221
30693.464628	-3124.032500	1747.204102	-141.670654
30693.464628	-3124.032500	1746.193359	-219.145218
30693.464628	-3124.032500	1745.181641	52.984318
30693.464628	-3124.032500	1744.168945	-145.051987
30693.464628	-3124.032500	1743.157227	169.365784
30693.464628	-3124.032500	1742.144531	-130.240372
30693.464628	-3124.032500	1741.132813	89.532852
30693.464628	-3124.032500	1740.120117	-210.044693
30693.464628	-3124.032500	1739.106445	-146.178497
30693.464628	-3124.032500	1738.093750	89.831963
30693.464628	-3124.032500	1737.080078	-54.054298
30693.464628	-3124.032500	1736.067383	7.232591
30693.464628	-3124.032500	1735.053711	-61.237206
30693.464628	-3124.032500	1734.040039	212.085815
30693.464628	-3124.032500	1733.025391	-334.957886
30693.464628	-3124.032500	1732.011719	-127.774582
30693.464628	-3124.032500	1730.997070	-234.075714
30693.464628	-3124.032500	1729.982422	-241.456100
30693.464628	-3124.032500	1728.967773	5.464923
30693.464628	-3124.032500	1727.952148	-188.085678
30693.464628	-3124.032500	1726.937500	-75.568306
30693.464628	-3124.032500	1725.921875	-7.870678
30693.464628	-3124.032500	1724.906250	-81.452545
30693.464628	-3124.032500	1723.890625	16.697659
30693.464628	-3124.032500	1722.875000	-40.504211
30693.464628	-3124.032500	1721.858398	78.656837
30693.464628	-3124.032500	1720.841797	21.352142
30693.464628	-3124.032500	1719.825195	168.556198
30693.464628	-3124.032500	1718.808594	332.102844
30693.464628	-3124.032500	1717.791992	-66.160355
30693.464628	-3124.032500	1716.774414	5.616127
30693.464628	-3124.032500	1715.756836	-181.112854
30693.464628	-3124.032500	1714.739258	-64.827873
30693.464628	-3124.032500	1713.721680	182.865540
30693.464628	-3124.032500	1712.704102	263.703644
30693.464628	-3124.032500	1711.685547	175.436127
30693.464628	-3124.032500	1710.667969	28.469612
30693.464628	-3124.032500	1709.649414	153.703918
30693.464628	-3124.032500	1708.630859	91.143173
30693.464628	-3124.032500	1707.611328	326.447021
30693.464628	-3124.032500	1706.592773	106.631958
30693.464628	-3124.032500	1705.573242	43.943081
30693.464628	-3124.032500	1704.553711	-56.289066
30693.464628	-3124.032500	1703.534180	101.285133
30693.464628	-3124.032500	1702.513672	174.375931
30693.464628	-3124.032500	1701.494141	81.033524
30693.464628	-3124.032500	1700.473633	-35.759109
30693.464628	-3124.032500	1699.453125	62.906963
30693.464628	-3124.032500	1698.432617	245.775955
30693.464628	-3124.032500	1697.412109	419.152588
30693.464628	-3124.032500	1696.390625	208.524246
30693.464628	-3124.032500	1695.369141	96.210251
30693.464628	-3124.032500	1694.347656	150.009537
30693.464628	-3124.032500	1693.326172	498.492523
30693.464628	-3124.032500	1692.304688	531.030396
30693.464628	-3124.032500	1691.282227	107.491142
30693.464628	-3124.032500	1690.260742	-177.993668
30693.464628	-3124.032500	1689.238281	307.969971
30693.464628	-3124.032500	1688.214844	165.001175
30693.464628	-3124.032500	1687.192383	412.257263
30693.464628	-3124.032500	1686.168945	388.356506
30693.464628	-3124.032500	1685.146484	523.245544
30693.464628	-3124.032500	1684.123047	380.118683
30693.464628	-3124.032500	1683.099609	386.422943
30693.464628	-3124.032500	1682.075195	502.383362
30693.464628	-3124.032500	1681.051758	219.136444
30693.464628	-3124.032500	1680.027344	544.991333
30693.464628	-3124.032500	1679.002930	642.022339
30693.464628	-3124.032500	1677.978516	578.010864
30693.464628	-3124.032500	1676.953125	667.886902
30693.464628	-3124.032500	1675.928711	557.150757
30693.464628	-3124.032500	1674.903320	479.034943
30693.464628	-3124.032500	1673.877930	550.069092
30693.464628	-3124.032500	1672.852539	429.931244
30693.464628	-3124.032500	1671.826172	752.469116
30693.464628	-3124.032500	1670.800781	546.038940
30693.464628	-3124.032500	1669.774414	470.058472
30693.464628	-3124.032500	1668.748047	692.114258
30693.464628	-3124.032500	1667.721680	1025.780762
30693.464628	-3124.032500	1666.694336	658.628296
30693.464628	-3124.032500	1665.667969	545.238220
30693.464628	-3124.032500	1664.640625	655.209412
30693.464628	-3124.032500	1663.613281	534.777100
30693.464628	-3124.032500	1662.585938	728.338318
30693.464628	-3124.032500	1661.557617	842.703186
30693.464628	-3124.032500	1660.530273	782.604004
30693.464628	-3124.032500	1659.501953	768.965454
30693.464628	-3124.032500	1658.473633	1036.495850
30693.464628	-3124.032500	1657.444336	867.026611
30693.464628	-3124.032500	1656.416016	1345.749512
30693.464628	-3124.032500	1655.386719	943.913086
30693.464628	-3124.032500	1654.358398	844.088135
30693.464628	-3124.032500	1653.328125	1143.602173
30693.464628	-3124.032500	1652.298828	1073.857178
30693.464628	-3124.032500	1651.269531	1129.422974
30693.464628	-3124.032500	1650.239258	1354.314453
30693.464628	-3124.032500	1649.208984	1228.744141
30693.464628	-3124.032500	1648.178711	1277.148193
30693.464628	-3124.032500	1647.148438	1613.066162
30693.464628	-3124.032500	1646.117188	1700.700439
30693.464628	-3124.032500	1645.086914	1572.667480
30693.464628	-3124.032500	1644.055664	1595.291260
30693.464628	-3124.032500	1643.024414	1330.513184
30693.464628	-3124.032500	1641.992188	1821.101807
30693.464628	-3124.032500	1640.960938	1825.008057
30693.464628	-3124.032500	1639.928711	1462.938477
30693.464628	-3124.032500	1638.896484	1665.965454
30693.464628	-3124.032500	1637.864258	1688.294678
30693.464628	-3124.032500	1636.832031	1546.235352
30693.464628	-3124.032500	1635.798828	1691.151611
30693.464628	-3124.032500	1634.766602	1694.838623
30693.464628	-3124.032500	1633.733398	1763.254395
30693.464628	-3124.032500	1632.699219	1785.344849
30693.464628	-3124.032500	1631.666016	1992.389771
30693.464628	-3124.032500	1630.632813	2074.473877
30693.464628	-3124.032500	1629.598633	2246.632813
30693.464628	-3124.032500	1628.564453	1725.371582
30693.464628	-3124.032500	1627.530273	1661.782349
30693.464628	-3124.032500	1626.495117	1683.656860
30693.464628	-3124.032500	1625.460938	1975.734253
30693.464628	-3124.032500	1624.425781	2096.774658
30693.464628	-3124.032500	1623.390625	1919.898438
30693.464628	-3124.032500	1622.355469	2223.205566
30693.464628	-3124.032500	1621.319336	2226.329590
30693.464628	-3124.032500	1620.284180	2086.365234
30693.464628	-3124.032500	1619.248047	2128.676514
30693.464628	-3124.032500	1618.211914	2348.554932
30693.464628	-3124.032500	1617.174805	2305.413330
30693.464628	-3124.032500	1616.138672	2004.034180
30693.464628	-3124.032500	1615.101563	2424.281250
30693.464628	-3124.032500	1614.065430	2519.370361
30693.464628	-3124.032500	1613.027344	2035.999146
30693.464628	-3124.032500	1611.990234	2209.411133
30693.464628	-3124.032500	1610.953125	2090.194824
30693.464628	-3124.032500	1609.915039	2304.934814
30693.464628	-3124.032500	1608.876953	2335.366699
30693.464628	-3124.032500	1607.838867	2018.151123
30693.464628	-3124.032500	1606.800781	2126.847656
30693.464628	-3124.032500	1605.761719	2279.199219
30693.464628	-3124.032500	1604.723633	2171.498291
30693.464628	-3124.032500	1603.684570	2544.580811
30693.464628	-3124.032500	1602.644531	2620.816650
30693.464628	-3124.032500	1601.605469	2494.666992
30693.464628	-3124.032500	1600.566406	2359.358398
30693.464628	-3124.032500	1599.526367	2405.666748
30693.464628	-3124.032500	1598.486328	2644.982422
30693.464628	-3124.032500	1597.446289	2682.007080
30693.464628	-3124.032500	1596.405273	2783.319580
30693.464628	-3124.032500	1595.365234	2721.527100
30693.464628	-3124.032500	1594.324219	2747.000732
30693.464628	-3124.032500	1593.283203	2751.796631
