#X		#Y		#Wave		#Intensity
464.420745	6309.920000	1999.946289	0.629520
464.420745	6309.920000	1998.981445	121.052971
464.420745	6309.920000	1998.017578	59.406158
464.420745	6309.920000	1997.052734	-12.154801
464.420745	6309.920000	1996.088867	126.883873
464.420745	6309.920000	1995.124023	25.558580
464.420745	6309.920000	1994.159180	90.185295
464.420745	6309.920000	1993.193359	-105.245941
464.420745	6309.920000	1992.228516	43.506416
464.420745	6309.920000	1991.262695	-35.554134
464.420745	6309.920000	1990.296875	78.430023
464.420745	6309.920000	1989.331055	58.725502
464.420745	6309.920000	1988.365234	-59.956749
464.420745	6309.920000	1987.398438	-215.723022
464.420745	6309.920000	1986.432617	-47.488617
464.420745	6309.920000	1985.465820	11.864402
464.420745	6309.920000	1984.499023	-74.687988
464.420745	6309.920000	1983.532227	-30.235100
464.420745	6309.920000	1982.565430	-22.893593
464.420745	6309.920000	1981.597656	51.130993
464.420745	6309.920000	1980.629883	-0.884468
464.420745	6309.920000	1979.662109	-13.389132
464.420745	6309.920000	1978.694336	82.738152
464.420745	6309.920000	1977.726563	38.074593
464.420745	6309.920000	1976.758789	94.608543
464.420745	6309.920000	1975.790039	-14.260694
464.420745	6309.920000	1974.821289	37.275677
464.420745	6309.920000	1973.852539	91.234337
464.420745	6309.920000	1972.883789	-44.784538
464.420745	6309.920000	1971.915039	60.907612
464.420745	6309.920000	1970.945313	30.920424
464.420745	6309.920000	1969.975586	0.918310
464.420745	6309.920000	1969.005859	44.846676
464.420745	6309.920000	1968.036133	7.409224
464.420745	6309.920000	1967.066406	-135.987213
464.420745	6309.920000	1966.096680	77.842537
464.420745	6309.920000	1965.125977	18.177385
464.420745	6309.920000	1964.155273	-100.591515
464.420745	6309.920000	1963.184570	-130.706741
464.420745	6309.920000	1962.213867	73.016869
464.420745	6309.920000	1961.242188	-58.076405
464.420745	6309.920000	1960.271484	-14.436530
464.420745	6309.920000	1959.299805	-47.105080
464.420745	6309.920000	1958.328125	-13.371898
464.420745	6309.920000	1957.356445	89.184998
464.420745	6309.920000	1956.384766	181.843552
464.420745	6309.920000	1955.412109	-18.106300
464.420745	6309.920000	1954.439453	118.732697
464.420745	6309.920000	1953.467773	68.727158
464.420745	6309.920000	1952.495117	-123.791313
464.420745	6309.920000	1951.521484	27.658308
464.420745	6309.920000	1950.548828	70.958092
464.420745	6309.920000	1949.575195	-40.488201
464.420745	6309.920000	1948.601563	152.528351
464.420745	6309.920000	1947.627930	205.528885
464.420745	6309.920000	1946.654297	111.228836
464.420745	6309.920000	1945.680664	9.579503
464.420745	6309.920000	1944.706055	-160.750534
464.420745	6309.920000	1943.732422	24.633339
464.420745	6309.920000	1942.757813	-45.131069
464.420745	6309.920000	1941.783203	-7.004096
464.420745	6309.920000	1940.807617	9.021618
464.420745	6309.920000	1939.833008	42.176323
464.420745	6309.920000	1938.857422	-34.982437
464.420745	6309.920000	1937.881836	-50.880730
464.420745	6309.920000	1936.906250	18.944454
464.420745	6309.920000	1935.930664	-58.234303
464.420745	6309.920000	1934.955078	-17.864149
464.420745	6309.920000	1933.978516	49.400978
464.420745	6309.920000	1933.001953	185.160034
464.420745	6309.920000	1932.025391	164.210007
464.420745	6309.920000	1931.048828	35.578831
464.420745	6309.920000	1930.072266	119.821815
464.420745	6309.920000	1929.094727	101.276123
464.420745	6309.920000	1928.118164	75.379547
464.420745	6309.920000	1927.140625	-16.549177
464.420745	6309.920000	1926.163086	28.439138
464.420745	6309.920000	1925.184570	36.725033
464.420745	6309.920000	1924.207031	176.952042
464.420745	6309.920000	1923.228516	-37.178967
464.420745	6309.920000	1922.250000	78.538124
464.420745	6309.920000	1921.271484	37.875397
464.420745	6309.920000	1920.292969	2.091250
464.420745	6309.920000	1919.314453	76.168213
464.420745	6309.920000	1918.334961	69.640961
464.420745	6309.920000	1917.355469	172.923233
464.420745	6309.920000	1916.375977	83.373993
464.420745	6309.920000	1915.396484	62.149612
464.420745	6309.920000	1914.416992	218.977219
464.420745	6309.920000	1913.436523	12.346004
464.420745	6309.920000	1912.457031	-72.310501
464.420745	6309.920000	1911.476563	242.855560
464.420745	6309.920000	1910.496094	114.272682
464.420745	6309.920000	1909.515625	-53.272903
464.420745	6309.920000	1908.534180	-18.546532
464.420745	6309.920000	1907.552734	116.025368
464.420745	6309.920000	1906.572266	36.195656
464.420745	6309.920000	1905.590820	14.818274
464.420745	6309.920000	1904.608398	-74.742485
464.420745	6309.920000	1903.626953	-8.497567
464.420745	6309.920000	1902.644531	-0.708365
464.420745	6309.920000	1901.663086	128.725586
464.420745	6309.920000	1900.680664	31.833815
464.420745	6309.920000	1899.698242	119.822861
464.420745	6309.920000	1898.714844	15.634211
464.420745	6309.920000	1897.732422	-56.924492
464.420745	6309.920000	1896.749023	50.421745
464.420745	6309.920000	1895.765625	162.569931
464.420745	6309.920000	1894.782227	51.084126
464.420745	6309.920000	1893.798828	82.973167
464.420745	6309.920000	1892.814453	136.693085
464.420745	6309.920000	1891.831055	-23.357462
464.420745	6309.920000	1890.846680	-1.243542
464.420745	6309.920000	1889.862305	-39.853680
464.420745	6309.920000	1888.877930	47.757984
464.420745	6309.920000	1887.892578	18.822771
464.420745	6309.920000	1886.908203	4.440202
464.420745	6309.920000	1885.922852	106.493736
464.420745	6309.920000	1884.937500	155.127167
464.420745	6309.920000	1883.952148	9.712135
464.420745	6309.920000	1882.965820	109.225945
464.420745	6309.920000	1881.980469	114.140366
464.420745	6309.920000	1880.994141	-50.632034
464.420745	6309.920000	1880.007813	-82.077751
464.420745	6309.920000	1879.021484	-120.798790
464.420745	6309.920000	1878.035156	-11.755568
464.420745	6309.920000	1877.047852	-67.466965
464.420745	6309.920000	1876.061523	-67.479088
464.420745	6309.920000	1875.074219	106.804993
464.420745	6309.920000	1874.086914	101.881294
464.420745	6309.920000	1873.098633	50.956432
464.420745	6309.920000	1872.111328	-135.469177
464.420745	6309.920000	1871.123047	-24.277260
464.420745	6309.920000	1870.135742	-70.364807
464.420745	6309.920000	1869.147461	72.175453
464.420745	6309.920000	1868.158203	-82.757088
464.420745	6309.920000	1867.169922	-87.767334
464.420745	6309.920000	1866.180664	-15.452029
464.420745	6309.920000	1865.192383	-27.758774
464.420745	6309.920000	1864.203125	-6.255092
464.420745	6309.920000	1863.213867	85.274933
464.420745	6309.920000	1862.223633	2.859496
464.420745	6309.920000	1861.234375	89.488144
464.420745	6309.920000	1860.244141	127.779236
464.420745	6309.920000	1859.253906	88.796425
464.420745	6309.920000	1858.263672	-15.350427
464.420745	6309.920000	1857.273438	27.710772
464.420745	6309.920000	1856.282227	3.187799
464.420745	6309.920000	1855.291992	171.616776
464.420745	6309.920000	1854.300781	79.516747
464.420745	6309.920000	1853.309570	132.098404
464.420745	6309.920000	1852.317383	37.591446
464.420745	6309.920000	1851.326172	-37.614380
464.420745	6309.920000	1850.333984	10.084316
464.420745	6309.920000	1849.342773	108.343475
464.420745	6309.920000	1848.350586	124.645798
464.420745	6309.920000	1847.357422	63.854527
464.420745	6309.920000	1846.365234	142.728729
464.420745	6309.920000	1845.372070	-11.970201
464.420745	6309.920000	1844.379883	105.364548
464.420745	6309.920000	1843.386719	114.340012
464.420745	6309.920000	1842.393555	2.988844
464.420745	6309.920000	1841.399414	-16.925293
464.420745	6309.920000	1840.406250	114.678650
464.420745	6309.920000	1839.412109	49.024269
464.420745	6309.920000	1838.417969	-105.582764
464.420745	6309.920000	1837.423828	6.676395
464.420745	6309.920000	1836.429688	-119.060081
464.420745	6309.920000	1835.434570	146.908875
464.420745	6309.920000	1834.440430	4.339311
464.420745	6309.920000	1833.445313	22.739288
464.420745	6309.920000	1832.450195	-2.114238
464.420745	6309.920000	1831.454102	-99.012947
464.420745	6309.920000	1830.458984	56.179214
464.420745	6309.920000	1829.462891	-28.729525
464.420745	6309.920000	1828.466797	119.153091
464.420745	6309.920000	1827.470703	19.831442
464.420745	6309.920000	1826.474609	229.982773
464.420745	6309.920000	1825.478516	166.617310
464.420745	6309.920000	1824.481445	-4.653411
464.420745	6309.920000	1823.484375	78.257759
464.420745	6309.920000	1822.487305	125.163315
464.420745	6309.920000	1821.490234	42.615971
464.420745	6309.920000	1820.493164	166.150391
464.420745	6309.920000	1819.495117	-33.802170
464.420745	6309.920000	1818.498047	72.895729
464.420745	6309.920000	1817.500000	43.029434
464.420745	6309.920000	1816.500977	142.447525
464.420745	6309.920000	1815.502930	201.115662
464.420745	6309.920000	1814.504883	-65.764923
464.420745	6309.920000	1813.505859	-64.551147
464.420745	6309.920000	1812.506836	34.737392
464.420745	6309.920000	1811.507813	11.973246
464.420745	6309.920000	1810.508789	-22.759617
464.420745	6309.920000	1809.508789	76.405922
464.420745	6309.920000	1808.508789	79.885406
464.420745	6309.920000	1807.508789	40.319931
464.420745	6309.920000	1806.508789	-30.317366
464.420745	6309.920000	1805.508789	-31.654913
464.420745	6309.920000	1804.508789	-97.512054
464.420745	6309.920000	1803.507813	-24.834768
464.420745	6309.920000	1802.506836	179.137329
464.420745	6309.920000	1801.505859	43.978420
464.420745	6309.920000	1800.504883	49.691456
464.420745	6309.920000	1799.502930	131.753723
464.420745	6309.920000	1798.501953	132.637329
464.420745	6309.920000	1797.500000	45.225590
464.420745	6309.920000	1796.498047	62.781418
464.420745	6309.920000	1795.496094	80.311157
464.420745	6309.920000	1794.493164	93.043480
464.420745	6309.920000	1793.491211	-101.649406
464.420745	6309.920000	1792.488281	-117.527939
464.420745	6309.920000	1791.485352	193.058594
464.420745	6309.920000	1790.482422	93.700523
464.420745	6309.920000	1789.478516	163.490692
464.420745	6309.920000	1788.475586	61.755592
464.420745	6309.920000	1787.471680	-25.675547
464.420745	6309.920000	1786.467773	-3.576238
464.420745	6309.920000	1785.463867	20.875296
464.420745	6309.920000	1784.459961	2.460304
464.420745	6309.920000	1783.455078	12.583065
464.420745	6309.920000	1782.450195	-101.024986
464.420745	6309.920000	1781.445313	-24.326252
464.420745	6309.920000	1780.440430	-178.350510
464.420745	6309.920000	1779.435547	119.415421
464.420745	6309.920000	1778.429688	91.371353
464.420745	6309.920000	1777.424805	117.986237
464.420745	6309.920000	1776.418945	85.161209
464.420745	6309.920000	1775.413086	0.061433
464.420745	6309.920000	1774.406250	85.998260
464.420745	6309.920000	1773.400391	43.640011
464.420745	6309.920000	1772.393555	101.003418
464.420745	6309.920000	1771.386719	103.722939
464.420745	6309.920000	1770.379883	149.146255
464.420745	6309.920000	1769.373047	11.801693
464.420745	6309.920000	1768.365234	33.456573
464.420745	6309.920000	1767.358398	-8.963733
464.420745	6309.920000	1766.350586	81.428879
464.420745	6309.920000	1765.342773	46.087837
464.420745	6309.920000	1764.334961	-5.855486
464.420745	6309.920000	1763.326172	-57.801830
464.420745	6309.920000	1762.318359	53.783245
464.420745	6309.920000	1761.309570	-140.365158
464.420745	6309.920000	1760.300781	82.497513
464.420745	6309.920000	1759.291016	21.018295
464.420745	6309.920000	1758.282227	-28.612953
464.420745	6309.920000	1757.272461	-2.481077
464.420745	6309.920000	1756.262695	-68.701820
464.420745	6309.920000	1755.252930	104.131599
464.420745	6309.920000	1754.243164	-49.678062
464.420745	6309.920000	1753.233398	-4.712300
464.420745	6309.920000	1752.222656	-28.384233
464.420745	6309.920000	1751.211914	2.328184
464.420745	6309.920000	1750.201172	-92.311821
464.420745	6309.920000	1749.190430	106.215324
464.420745	6309.920000	1748.179688	-16.810543
464.420745	6309.920000	1747.167969	209.942978
464.420745	6309.920000	1746.156250	-104.481445
464.420745	6309.920000	1745.144531	-121.154099
464.420745	6309.920000	1744.132813	-118.944061
464.420745	6309.920000	1743.121094	24.930462
464.420745	6309.920000	1742.108398	-8.344190
464.420745	6309.920000	1741.095703	-39.264828
464.420745	6309.920000	1740.083008	139.852692
464.420745	6309.920000	1739.070313	59.326286
464.420745	6309.920000	1738.057617	33.072533
464.420745	6309.920000	1737.043945	9.164909
464.420745	6309.920000	1736.030273	20.621828
464.420745	6309.920000	1735.016602	55.633297
464.420745	6309.920000	1734.002930	38.751629
464.420745	6309.920000	1732.989258	10.073087
464.420745	6309.920000	1731.974609	-28.042789
464.420745	6309.920000	1730.959961	32.790180
464.420745	6309.920000	1729.945313	-68.952339
464.420745	6309.920000	1728.930664	119.004135
464.420745	6309.920000	1727.916016	45.503929
464.420745	6309.920000	1726.900391	85.011490
464.420745	6309.920000	1725.885742	-52.041988
464.420745	6309.920000	1724.870117	-21.980145
464.420745	6309.920000	1723.853516	8.048630
464.420745	6309.920000	1722.837891	-100.740196
464.420745	6309.920000	1721.822266	86.840950
464.420745	6309.920000	1720.805664	60.341881
464.420745	6309.920000	1719.789063	36.186581
464.420745	6309.920000	1718.772461	7.321911
464.420745	6309.920000	1717.754883	-7.452342
464.420745	6309.920000	1716.738281	31.808487
464.420745	6309.920000	1715.720703	71.033440
464.420745	6309.920000	1714.703125	79.691978
464.420745	6309.920000	1713.685547	-31.436497
464.420745	6309.920000	1712.667969	-48.622868
464.420745	6309.920000	1711.649414	-61.128952
464.420745	6309.920000	1710.630859	-57.218136
464.420745	6309.920000	1709.612305	24.111164
464.420745	6309.920000	1708.593750	-75.257149
464.420745	6309.920000	1707.575195	-5.717001
464.420745	6309.920000	1706.555664	-44.103512
464.420745	6309.920000	1705.536133	15.987988
464.420745	6309.920000	1704.516602	-36.486320
464.420745	6309.920000	1703.497070	-63.173779
464.420745	6309.920000	1702.477539	-14.877967
464.420745	6309.920000	1701.457031	-86.111794
464.420745	6309.920000	1700.437500	-131.561966
464.420745	6309.920000	1699.416992	5.665994
464.420745	6309.920000	1698.395508	93.647842
464.420745	6309.920000	1697.375000	-66.577919
464.420745	6309.920000	1696.354492	-23.116024
464.420745	6309.920000	1695.333008	78.816460
464.420745	6309.920000	1694.311523	28.607759
464.420745	6309.920000	1693.290039	88.352753
464.420745	6309.920000	1692.267578	-57.767723
464.420745	6309.920000	1691.246094	30.003244
464.420745	6309.920000	1690.223633	-36.586586
464.420745	6309.920000	1689.201172	88.515160
464.420745	6309.920000	1688.178711	-38.853481
464.420745	6309.920000	1687.155273	-7.298821
464.420745	6309.920000	1686.132813	-73.886093
464.420745	6309.920000	1685.109375	83.767136
464.420745	6309.920000	1684.085938	91.886139
464.420745	6309.920000	1683.062500	125.672264
464.420745	6309.920000	1682.039063	21.701345
464.420745	6309.920000	1681.014648	50.789394
464.420745	6309.920000	1679.990234	-20.487675
464.420745	6309.920000	1678.965820	-14.759082
464.420745	6309.920000	1677.941406	179.896729
464.420745	6309.920000	1676.916992	122.591278
464.420745	6309.920000	1675.891602	48.969116
464.420745	6309.920000	1674.866211	54.626251
464.420745	6309.920000	1673.840820	-42.286251
464.420745	6309.920000	1672.815430	61.238132
464.420745	6309.920000	1671.790039	120.442757
464.420745	6309.920000	1670.763672	63.135239
464.420745	6309.920000	1669.737305	292.308624
464.420745	6309.920000	1668.710938	113.882011
464.420745	6309.920000	1667.684570	-143.642914
464.420745	6309.920000	1666.658203	197.133957
464.420745	6309.920000	1665.630859	-39.388023
464.420745	6309.920000	1664.603516	54.573311
464.420745	6309.920000	1663.576172	76.372154
464.420745	6309.920000	1662.548828	33.028244
464.420745	6309.920000	1661.520508	108.283722
464.420745	6309.920000	1660.493164	248.604614
464.420745	6309.920000	1659.464844	198.245972
464.420745	6309.920000	1658.436523	54.934364
464.420745	6309.920000	1657.408203	120.796440
464.420745	6309.920000	1656.378906	200.558701
464.420745	6309.920000	1655.350586	266.349854
464.420745	6309.920000	1654.321289	248.500580
464.420745	6309.920000	1653.291992	167.960602
464.420745	6309.920000	1652.261719	305.649261
464.420745	6309.920000	1651.232422	336.519073
464.420745	6309.920000	1650.202148	341.839630
464.420745	6309.920000	1649.171875	258.988892
464.420745	6309.920000	1648.141602	424.359711
464.420745	6309.920000	1647.111328	332.235474
464.420745	6309.920000	1646.080078	400.124878
464.420745	6309.920000	1645.049805	335.846680
464.420745	6309.920000	1644.018555	475.548859
464.420745	6309.920000	1642.987305	462.245697
464.420745	6309.920000	1641.955078	606.486877
464.420745	6309.920000	1640.923828	352.242493
464.420745	6309.920000	1639.891602	420.010223
464.420745	6309.920000	1638.859375	464.591370
464.420745	6309.920000	1637.827148	661.947144
464.420745	6309.920000	1636.794922	514.338989
464.420745	6309.920000	1635.761719	544.972900
464.420745	6309.920000	1634.729492	520.065063
464.420745	6309.920000	1633.696289	384.120483
464.420745	6309.920000	1632.662109	472.567078
464.420745	6309.920000	1631.628906	593.354553
464.420745	6309.920000	1630.594727	406.596649
464.420745	6309.920000	1629.561523	446.441895
464.420745	6309.920000	1628.527344	615.683167
464.420745	6309.920000	1627.493164	438.265045
464.420745	6309.920000	1626.458008	542.748840
464.420745	6309.920000	1625.423828	494.753754
464.420745	6309.920000	1624.388672	449.080536
464.420745	6309.920000	1623.353516	454.218140
464.420745	6309.920000	1622.318359	560.920227
464.420745	6309.920000	1621.282227	554.487915
464.420745	6309.920000	1620.247070	626.515991
464.420745	6309.920000	1619.210938	626.993713
464.420745	6309.920000	1618.174805	689.748352
464.420745	6309.920000	1617.137695	743.250061
464.420745	6309.920000	1616.101563	702.203430
464.420745	6309.920000	1615.064453	728.020142
464.420745	6309.920000	1614.027344	760.742737
464.420745	6309.920000	1612.990234	694.367615
464.420745	6309.920000	1611.953125	616.500488
464.420745	6309.920000	1610.916016	831.201233
464.420745	6309.920000	1609.877930	661.218323
464.420745	6309.920000	1608.839844	758.397095
464.420745	6309.920000	1607.801758	731.228943
464.420745	6309.920000	1606.763672	754.709839
464.420745	6309.920000	1605.724609	718.349426
464.420745	6309.920000	1604.685547	638.292480
464.420745	6309.920000	1603.646484	804.401917
464.420745	6309.920000	1602.607422	731.266907
464.420745	6309.920000	1601.568359	738.643616
464.420745	6309.920000	1600.528320	718.429993
464.420745	6309.920000	1599.489258	702.830933
464.420745	6309.920000	1598.449219	691.834534
464.420745	6309.920000	1597.408203	687.735901
464.420745	6309.920000	1596.368164	697.432373
464.420745	6309.920000	1595.327148	842.631714
464.420745	6309.920000	1594.287109	664.013916
464.420745	6309.920000	1593.246094	643.878052
464.420745	6309.920000	1592.204102	704.089722
464.420745	6309.920000	1591.163086	771.174438
464.420745	6309.920000	1590.121094	503.244965
464.420745	6309.920000	1589.079102	737.815918
464.420745	6309.920000	1588.037109	531.939270
464.420745	6309.920000	1586.995117	582.980591
464.420745	6309.920000	1585.953125	439.133545
464.420745	6309.920000	1584.910156	607.088623
464.420745	6309.920000	1583.867188	502.267242
464.420745	6309.920000	1582.824219	658.706238
464.420745	6309.920000	1581.781250	563.097839
464.420745	6309.920000	1580.737305	446.918732
464.420745	6309.920000	1579.693359	438.424225
464.420745	6309.920000	1578.649414	326.915405
464.420745	6309.920000	1577.605469	533.642029
464.420745	6309.920000	1576.561523	593.827026
464.420745	6309.920000	1575.516602	489.246521
464.420745	6309.920000	1574.472656	512.836426
464.420745	6309.920000	1573.427734	451.794769
464.420745	6309.920000	1572.381836	399.932373
464.420745	6309.920000	1571.336914	341.248505
464.420745	6309.920000	1570.291016	490.616058
464.420745	6309.920000	1569.246094	153.133392
464.420745	6309.920000	1568.200195	133.413193
464.420745	6309.920000	1567.153320	385.576874
464.420745	6309.920000	1566.107422	272.196320
464.420745	6309.920000	1565.060547	163.438492
464.420745	6309.920000	1564.013672	328.726929
464.420745	6309.920000	1562.966797	288.514069
464.420745	6309.920000	1561.919922	225.508179
