#X		#Y		#Wave		#Intensity
69.163298	5991.636667	1999.946289	63.601177
69.163298	5991.636667	1998.981445	104.369186
69.163298	5991.636667	1998.017578	15.514111
69.163298	5991.636667	1997.052734	204.399902
69.163298	5991.636667	1996.088867	-47.639961
69.163298	5991.636667	1995.124023	-116.123528
69.163298	5991.636667	1994.159180	-45.732121
69.163298	5991.636667	1993.193359	64.396362
69.163298	5991.636667	1992.228516	-6.100412
69.163298	5991.636667	1991.262695	0.300598
69.163298	5991.636667	1990.296875	36.534428
69.163298	5991.636667	1989.331055	72.887764
69.163298	5991.636667	1988.365234	99.461807
69.163298	5991.636667	1987.398438	69.255653
69.163298	5991.636667	1986.432617	-59.734909
69.163298	5991.636667	1985.465820	11.717357
69.163298	5991.636667	1984.499023	18.982616
69.163298	5991.636667	1983.532227	88.149719
69.163298	5991.636667	1982.565430	26.424761
69.163298	5991.636667	1981.597656	147.660950
69.163298	5991.636667	1980.629883	-25.012508
69.163298	5991.636667	1979.662109	123.557953
69.163298	5991.636667	1978.694336	-63.667416
69.163298	5991.636667	1977.726563	-53.216095
69.163298	5991.636667	1976.758789	6.691136
69.163298	5991.636667	1975.790039	59.256069
69.163298	5991.636667	1974.821289	-33.699451
69.163298	5991.636667	1973.852539	11.618133
69.163298	5991.636667	1972.883789	22.465317
69.163298	5991.636667	1971.915039	43.249538
69.163298	5991.636667	1970.945313	-12.340896
69.163298	5991.636667	1969.975586	186.083588
69.163298	5991.636667	1969.005859	44.358799
69.163298	5991.636667	1968.036133	-144.069519
69.163298	5991.636667	1967.066406	42.147720
69.163298	5991.636667	1966.096680	38.672199
69.163298	5991.636667	1965.125977	27.866262
69.163298	5991.636667	1964.155273	105.771706
69.163298	5991.636667	1963.184570	166.468307
69.163298	5991.636667	1962.213867	-60.813236
69.163298	5991.636667	1961.242188	7.375777
69.163298	5991.636667	1960.271484	48.522675
69.163298	5991.636667	1959.299805	101.999329
69.163298	5991.636667	1958.328125	148.120911
69.163298	5991.636667	1957.356445	132.784363
69.163298	5991.636667	1956.384766	28.975571
69.163298	5991.636667	1955.412109	-30.507139
69.163298	5991.636667	1954.439453	-57.977982
69.163298	5991.636667	1953.467773	-55.911442
69.163298	5991.636667	1952.495117	17.439259
69.163298	5991.636667	1951.521484	41.661362
69.163298	5991.636667	1950.548828	14.327260
69.163298	5991.636667	1949.575195	1.763635
69.163298	5991.636667	1948.601563	89.894577
69.163298	5991.636667	1947.627930	16.004641
69.163298	5991.636667	1946.654297	-35.745586
69.163298	5991.636667	1945.680664	-116.900566
69.163298	5991.636667	1944.706055	-28.723209
69.163298	5991.636667	1943.732422	20.195690
69.163298	5991.636667	1942.757813	32.325512
69.163298	5991.636667	1941.783203	32.207119
69.163298	5991.636667	1940.807617	147.325378
69.163298	5991.636667	1939.833008	-41.519413
69.163298	5991.636667	1938.857422	-48.935719
69.163298	5991.636667	1937.881836	78.422562
69.163298	5991.636667	1936.906250	44.062054
69.163298	5991.636667	1935.930664	14.621749
69.163298	5991.636667	1934.955078	-171.523499
69.163298	5991.636667	1933.978516	75.765274
69.163298	5991.636667	1933.001953	-68.695999
69.163298	5991.636667	1932.025391	48.777683
69.163298	5991.636667	1931.048828	48.756611
69.163298	5991.636667	1930.072266	-80.928162
69.163298	5991.636667	1929.094727	48.719933
69.163298	5991.636667	1928.118164	38.922256
69.163298	5991.636667	1927.140625	144.049377
69.163298	5991.636667	1926.163086	26.668388
69.163298	5991.636667	1925.184570	-5.123485
69.163298	5991.636667	1924.207031	11.972385
69.163298	5991.636667	1923.228516	114.573746
69.163298	5991.636667	1922.250000	90.103241
69.163298	5991.636667	1921.271484	-71.139099
69.163298	5991.636667	1920.292969	-17.432785
69.163298	5991.636667	1919.314453	-22.348824
69.163298	5991.636667	1918.334961	146.044174
69.163298	5991.636667	1917.355469	87.390152
69.163298	5991.636667	1916.375977	-34.693340
69.163298	5991.636667	1915.396484	50.633923
69.163298	5991.636667	1914.416992	-5.555394
69.163298	5991.636667	1913.436523	108.979721
69.163298	5991.636667	1912.457031	-8.178011
69.163298	5991.636667	1911.476563	13.654710
69.163298	5991.636667	1910.496094	115.902809
69.163298	5991.636667	1909.515625	30.454966
69.163298	5991.636667	1908.534180	1.064457
69.163298	5991.636667	1907.552734	52.062050
69.163298	5991.636667	1906.572266	39.703876
69.163298	5991.636667	1905.590820	110.130249
69.163298	5991.636667	1904.608398	143.994080
69.163298	5991.636667	1903.626953	22.041517
69.163298	5991.636667	1902.644531	33.975857
69.163298	5991.636667	1901.663086	79.959366
69.163298	5991.636667	1900.680664	-27.362310
69.163298	5991.636667	1899.698242	101.284706
69.163298	5991.636667	1898.714844	-23.057713
69.163298	5991.636667	1897.732422	-20.929741
69.163298	5991.636667	1896.749023	-89.321541
69.163298	5991.636667	1895.765625	51.326530
69.163298	5991.636667	1894.782227	123.861412
69.163298	5991.636667	1893.798828	94.305344
69.163298	5991.636667	1892.814453	-32.428692
69.163298	5991.636667	1891.831055	42.457760
69.163298	5991.636667	1890.846680	-42.973320
69.163298	5991.636667	1889.862305	97.401848
69.163298	5991.636667	1888.877930	109.053345
69.163298	5991.636667	1887.892578	-44.352974
69.163298	5991.636667	1886.908203	-18.157076
69.163298	5991.636667	1885.922852	-11.400116
69.163298	5991.636667	1884.937500	-58.027020
69.163298	5991.636667	1883.952148	50.553436
69.163298	5991.636667	1882.965820	28.139416
69.163298	5991.636667	1881.980469	12.989806
69.163298	5991.636667	1880.994141	36.604832
69.163298	5991.636667	1880.007813	101.388832
69.163298	5991.636667	1879.021484	30.448215
69.163298	5991.636667	1878.035156	121.817131
69.163298	5991.636667	1877.047852	7.262928
69.163298	5991.636667	1876.061523	-53.991360
69.163298	5991.636667	1875.074219	107.492813
69.163298	5991.636667	1874.086914	43.781067
69.163298	5991.636667	1873.098633	96.238884
69.163298	5991.636667	1872.111328	34.934177
69.163298	5991.636667	1871.123047	75.238983
69.163298	5991.636667	1870.135742	125.187134
69.163298	5991.636667	1869.147461	138.820038
69.163298	5991.636667	1868.158203	55.710922
69.163298	5991.636667	1867.169922	107.991905
69.163298	5991.636667	1866.180664	143.313675
69.163298	5991.636667	1865.192383	110.942223
69.163298	5991.636667	1864.203125	-44.657864
69.163298	5991.636667	1863.213867	-74.606216
69.163298	5991.636667	1862.223633	-17.618546
69.163298	5991.636667	1861.234375	-42.768551
69.163298	5991.636667	1860.244141	-2.745557
69.163298	5991.636667	1859.253906	-13.446453
69.163298	5991.636667	1858.263672	36.172329
69.163298	5991.636667	1857.273438	117.122131
69.163298	5991.636667	1856.282227	55.686203
69.163298	5991.636667	1855.291992	-164.934021
69.163298	5991.636667	1854.300781	-11.702938
69.163298	5991.636667	1853.309570	47.420185
69.163298	5991.636667	1852.317383	75.162399
69.163298	5991.636667	1851.326172	-94.755676
69.163298	5991.636667	1850.333984	-50.164268
69.163298	5991.636667	1849.342773	16.079193
69.163298	5991.636667	1848.350586	7.604373
69.163298	5991.636667	1847.357422	-32.196041
69.163298	5991.636667	1846.365234	74.887527
69.163298	5991.636667	1845.372070	3.758580
69.163298	5991.636667	1844.379883	40.958309
69.163298	5991.636667	1843.386719	-34.983860
69.163298	5991.636667	1842.393555	88.793335
69.163298	5991.636667	1841.399414	32.080769
69.163298	5991.636667	1840.406250	40.316727
69.163298	5991.636667	1839.412109	29.293228
69.163298	5991.636667	1838.417969	27.875019
69.163298	5991.636667	1837.423828	139.422638
69.163298	5991.636667	1836.429688	-145.646271
69.163298	5991.636667	1835.434570	25.931776
69.163298	5991.636667	1834.440430	132.565933
69.163298	5991.636667	1833.445313	-15.472940
69.163298	5991.636667	1832.450195	40.663895
69.163298	5991.636667	1831.454102	115.970802
69.163298	5991.636667	1830.458984	30.392708
69.163298	5991.636667	1829.462891	16.836603
69.163298	5991.636667	1828.466797	120.860260
69.163298	5991.636667	1827.470703	124.059578
69.163298	5991.636667	1826.474609	4.902030
69.163298	5991.636667	1825.478516	20.087519
69.163298	5991.636667	1824.481445	159.944809
69.163298	5991.636667	1823.484375	-11.939957
69.163298	5991.636667	1822.487305	0.800618
69.163298	5991.636667	1821.490234	102.197975
69.163298	5991.636667	1820.493164	47.795269
69.163298	5991.636667	1819.495117	-11.394210
69.163298	5991.636667	1818.498047	-3.503384
69.163298	5991.636667	1817.500000	69.029251
69.163298	5991.636667	1816.500977	-47.633530
69.163298	5991.636667	1815.502930	32.038486
69.163298	5991.636667	1814.504883	-48.691433
69.163298	5991.636667	1813.505859	40.497055
69.163298	5991.636667	1812.506836	17.191200
69.163298	5991.636667	1811.507813	-94.623459
69.163298	5991.636667	1810.508789	-67.691353
69.163298	5991.636667	1809.508789	133.772659
69.163298	5991.636667	1808.508789	139.110748
69.163298	5991.636667	1807.508789	-77.859512
69.163298	5991.636667	1806.508789	8.750739
69.163298	5991.636667	1805.508789	80.982208
69.163298	5991.636667	1804.508789	17.007938
69.163298	5991.636667	1803.507813	129.792221
69.163298	5991.636667	1802.506836	15.663113
69.163298	5991.636667	1801.505859	-115.144836
69.163298	5991.636667	1800.504883	64.412987
69.163298	5991.636667	1799.502930	103.077705
69.163298	5991.636667	1798.501953	-1.450261
69.163298	5991.636667	1797.500000	77.753517
69.163298	5991.636667	1796.498047	97.286171
69.163298	5991.636667	1795.496094	59.566818
69.163298	5991.636667	1794.493164	36.157333
69.163298	5991.636667	1793.491211	43.743549
69.163298	5991.636667	1792.488281	156.190750
69.163298	5991.636667	1791.485352	66.028206
69.163298	5991.636667	1790.482422	-19.342062
69.163298	5991.636667	1789.478516	-23.697071
69.163298	5991.636667	1788.475586	93.412239
69.163298	5991.636667	1787.471680	134.267578
69.163298	5991.636667	1786.467773	-15.362485
69.163298	5991.636667	1785.463867	-12.600850
69.163298	5991.636667	1784.459961	61.550686
69.163298	5991.636667	1783.455078	102.352654
69.163298	5991.636667	1782.450195	-49.565041
69.163298	5991.636667	1781.445313	48.315319
69.163298	5991.636667	1780.440430	-53.606216
69.163298	5991.636667	1779.435547	63.247643
69.163298	5991.636667	1778.429688	-52.915325
69.163298	5991.636667	1777.424805	123.302246
69.163298	5991.636667	1776.418945	23.795254
69.163298	5991.636667	1775.413086	76.374748
69.163298	5991.636667	1774.406250	155.054642
69.163298	5991.636667	1773.400391	-153.409775
69.163298	5991.636667	1772.393555	143.726959
69.163298	5991.636667	1771.386719	32.413574
69.163298	5991.636667	1770.379883	92.035469
69.163298	5991.636667	1769.373047	11.616191
69.163298	5991.636667	1768.365234	177.978699
69.163298	5991.636667	1767.358398	69.098549
69.163298	5991.636667	1766.350586	119.161537
69.163298	5991.636667	1765.342773	17.437241
69.163298	5991.636667	1764.334961	-41.576675
69.163298	5991.636667	1763.326172	1.353372
69.163298	5991.636667	1762.318359	-180.880081
69.163298	5991.636667	1761.309570	-40.796814
69.163298	5991.636667	1760.300781	75.539734
69.163298	5991.636667	1759.291016	-14.244291
69.163298	5991.636667	1758.282227	-16.372080
69.163298	5991.636667	1757.272461	90.410011
69.163298	5991.636667	1756.262695	78.784637
69.163298	5991.636667	1755.252930	29.292402
69.163298	5991.636667	1754.243164	114.699028
69.163298	5991.636667	1753.233398	77.042679
69.163298	5991.636667	1752.222656	-31.569073
69.163298	5991.636667	1751.211914	-5.335918
69.163298	5991.636667	1750.201172	70.540558
69.163298	5991.636667	1749.190430	-45.107529
69.163298	5991.636667	1748.179688	14.197430
69.163298	5991.636667	1747.167969	42.752438
69.163298	5991.636667	1746.156250	-1.951285
69.163298	5991.636667	1745.144531	57.301666
69.163298	5991.636667	1744.132813	168.491333
69.163298	5991.636667	1743.121094	24.604115
69.163298	5991.636667	1742.108398	79.086891
69.163298	5991.636667	1741.095703	6.079816
69.163298	5991.636667	1740.083008	-76.341377
69.163298	5991.636667	1739.070313	48.913204
69.163298	5991.636667	1738.057617	82.110710
69.163298	5991.636667	1737.043945	39.811790
69.163298	5991.636667	1736.030273	-89.727707
69.163298	5991.636667	1735.016602	-122.549721
69.163298	5991.636667	1734.002930	-42.206947
69.163298	5991.636667	1732.989258	47.531124
69.163298	5991.636667	1731.974609	-15.939416
69.163298	5991.636667	1730.959961	-77.030693
69.163298	5991.636667	1729.945313	69.188484
69.163298	5991.636667	1728.930664	-112.008911
69.163298	5991.636667	1727.916016	-189.533966
69.163298	5991.636667	1726.900391	-88.113670
69.163298	5991.636667	1725.885742	22.684536
69.163298	5991.636667	1724.870117	133.436462
69.163298	5991.636667	1723.853516	-92.317345
69.163298	5991.636667	1722.837891	-141.552063
69.163298	5991.636667	1721.822266	63.242138
69.163298	5991.636667	1720.805664	75.130280
69.163298	5991.636667	1719.789063	-72.858864
69.163298	5991.636667	1718.772461	-72.704781
69.163298	5991.636667	1717.754883	44.952961
69.163298	5991.636667	1716.738281	-20.708998
69.163298	5991.636667	1715.720703	42.858795
69.163298	5991.636667	1714.703125	10.100132
69.163298	5991.636667	1713.685547	83.029175
69.163298	5991.636667	1712.667969	24.446230
69.163298	5991.636667	1711.649414	-62.287804
69.163298	5991.636667	1710.630859	-87.967422
69.163298	5991.636667	1709.612305	52.966942
69.163298	5991.636667	1708.593750	-36.072113
69.163298	5991.636667	1707.575195	-54.708126
69.163298	5991.636667	1706.555664	6.395876
69.163298	5991.636667	1705.536133	137.817459
69.163298	5991.636667	1704.516602	-127.000031
69.163298	5991.636667	1703.497070	105.181190
69.163298	5991.636667	1702.477539	81.840599
69.163298	5991.636667	1701.457031	-82.073494
69.163298	5991.636667	1700.437500	-37.438698
69.163298	5991.636667	1699.416992	86.804695
69.163298	5991.636667	1698.395508	28.350019
69.163298	5991.636667	1697.375000	-137.773102
69.163298	5991.636667	1696.354492	16.843594
69.163298	5991.636667	1695.333008	-41.567425
69.163298	5991.636667	1694.311523	-36.782135
69.163298	5991.636667	1693.290039	131.755112
69.163298	5991.636667	1692.267578	-74.002998
69.163298	5991.636667	1691.246094	10.289537
69.163298	5991.636667	1690.223633	15.052780
69.163298	5991.636667	1689.201172	85.264648
69.163298	5991.636667	1688.178711	-29.184265
69.163298	5991.636667	1687.155273	99.419472
69.163298	5991.636667	1686.132813	-31.344255
69.163298	5991.636667	1685.109375	150.929962
69.163298	5991.636667	1684.085938	59.900684
69.163298	5991.636667	1683.062500	71.638695
69.163298	5991.636667	1682.039063	-14.674408
69.163298	5991.636667	1681.014648	116.099121
69.163298	5991.636667	1679.990234	97.476250
69.163298	5991.636667	1678.965820	99.855873
69.163298	5991.636667	1677.941406	137.222321
69.163298	5991.636667	1676.916992	34.642448
69.163298	5991.636667	1675.891602	127.961517
69.163298	5991.636667	1674.866211	183.942093
69.163298	5991.636667	1673.840820	97.719406
69.163298	5991.636667	1672.815430	130.376892
69.163298	5991.636667	1671.790039	139.720673
69.163298	5991.636667	1670.763672	72.182899
69.163298	5991.636667	1669.737305	6.997844
69.163298	5991.636667	1668.710938	81.550705
69.163298	5991.636667	1667.684570	72.259888
69.163298	5991.636667	1666.658203	51.331909
69.163298	5991.636667	1665.630859	97.896179
69.163298	5991.636667	1664.603516	37.408154
69.163298	5991.636667	1663.576172	149.089935
69.163298	5991.636667	1662.548828	53.722755
69.163298	5991.636667	1661.520508	67.681618
69.163298	5991.636667	1660.493164	158.360382
69.163298	5991.636667	1659.464844	151.367538
69.163298	5991.636667	1658.436523	93.245453
69.163298	5991.636667	1657.408203	155.972092
69.163298	5991.636667	1656.378906	9.581681
69.163298	5991.636667	1655.350586	76.940224
69.163298	5991.636667	1654.321289	121.043907
69.163298	5991.636667	1653.291992	30.460976
69.163298	5991.636667	1652.261719	42.047894
69.163298	5991.636667	1651.232422	74.518829
69.163298	5991.636667	1650.202148	134.817230
69.163298	5991.636667	1649.171875	178.848740
69.163298	5991.636667	1648.141602	246.056168
69.163298	5991.636667	1647.111328	102.192429
69.163298	5991.636667	1646.080078	234.301941
69.163298	5991.636667	1645.049805	153.082291
69.163298	5991.636667	1644.018555	132.150253
69.163298	5991.636667	1642.987305	196.964218
69.163298	5991.636667	1641.955078	-27.864975
69.163298	5991.636667	1640.923828	25.366137
69.163298	5991.636667	1639.891602	328.697144
69.163298	5991.636667	1638.859375	101.647034
69.163298	5991.636667	1637.827148	314.549683
69.163298	5991.636667	1636.794922	133.875809
69.163298	5991.636667	1635.761719	177.742554
69.163298	5991.636667	1634.729492	258.611694
69.163298	5991.636667	1633.696289	135.871979
69.163298	5991.636667	1632.662109	103.373421
69.163298	5991.636667	1631.628906	269.754578
69.163298	5991.636667	1630.594727	227.987167
69.163298	5991.636667	1629.561523	105.332787
69.163298	5991.636667	1628.527344	243.868118
69.163298	5991.636667	1627.493164	199.807449
69.163298	5991.636667	1626.458008	377.532104
69.163298	5991.636667	1625.423828	333.454071
69.163298	5991.636667	1624.388672	157.757477
69.163298	5991.636667	1623.353516	363.079956
69.163298	5991.636667	1622.318359	309.780792
69.163298	5991.636667	1621.282227	194.180817
69.163298	5991.636667	1620.247070	286.297516
69.163298	5991.636667	1619.210938	258.404785
69.163298	5991.636667	1618.174805	306.635895
69.163298	5991.636667	1617.137695	281.044037
69.163298	5991.636667	1616.101563	283.129120
69.163298	5991.636667	1615.064453	285.205658
69.163298	5991.636667	1614.027344	227.352127
69.163298	5991.636667	1612.990234	303.167664
69.163298	5991.636667	1611.953125	296.009674
69.163298	5991.636667	1610.916016	275.028473
69.163298	5991.636667	1609.877930	392.226471
69.163298	5991.636667	1608.839844	387.339996
69.163298	5991.636667	1607.801758	410.075043
69.163298	5991.636667	1606.763672	379.858826
69.163298	5991.636667	1605.724609	234.587326
69.163298	5991.636667	1604.685547	478.191650
69.163298	5991.636667	1603.646484	335.247467
69.163298	5991.636667	1602.607422	316.545288
69.163298	5991.636667	1601.568359	449.605591
69.163298	5991.636667	1600.528320	359.608002
69.163298	5991.636667	1599.489258	430.537903
69.163298	5991.636667	1598.449219	283.117859
69.163298	5991.636667	1597.408203	340.232635
69.163298	5991.636667	1596.368164	351.380310
69.163298	5991.636667	1595.327148	511.800537
69.163298	5991.636667	1594.287109	552.751709
69.163298	5991.636667	1593.246094	577.607178
69.163298	5991.636667	1592.204102	549.651184
69.163298	5991.636667	1591.163086	634.154297
69.163298	5991.636667	1590.121094	500.642731
69.163298	5991.636667	1589.079102	543.816223
69.163298	5991.636667	1588.037109	586.967834
69.163298	5991.636667	1586.995117	524.614075
69.163298	5991.636667	1585.953125	496.668976
69.163298	5991.636667	1584.910156	464.141785
69.163298	5991.636667	1583.867188	525.584290
69.163298	5991.636667	1582.824219	502.218689
69.163298	5991.636667	1581.781250	451.366211
69.163298	5991.636667	1580.737305	505.884735
69.163298	5991.636667	1579.693359	567.245972
69.163298	5991.636667	1578.649414	488.916748
69.163298	5991.636667	1577.605469	467.839447
69.163298	5991.636667	1576.561523	467.363159
69.163298	5991.636667	1575.516602	402.808624
69.163298	5991.636667	1574.472656	265.070557
69.163298	5991.636667	1573.427734	385.840149
69.163298	5991.636667	1572.381836	479.111572
69.163298	5991.636667	1571.336914	300.264435
69.163298	5991.636667	1570.291016	274.636383
69.163298	5991.636667	1569.246094	310.725281
69.163298	5991.636667	1568.200195	344.505463
69.163298	5991.636667	1567.153320	243.473007
69.163298	5991.636667	1566.107422	281.810852
69.163298	5991.636667	1565.060547	352.096344
69.163298	5991.636667	1564.013672	410.933167
69.163298	5991.636667	1562.966797	360.166565
69.163298	5991.636667	1561.919922	400.709137
69.163298	5991.636667	1560.872070	354.514343
69.163298	5991.636667	1559.825195	367.654327
69.163298	5991.636667	1558.777344	332.878784
69.163298	5991.636667	1557.729492	462.311920
69.163298	5991.636667	1556.680664	372.794891
69.163298	5991.636667	1555.632813	153.370544
69.163298	5991.636667	1554.583984	159.666016
69.163298	5991.636667	1553.535156	186.462753
69.163298	5991.636667	1552.486328	384.117706
69.163298	5991.636667	1551.436523	369.844116
