#X		#Y		#Wave		#Intensity
136.646277	5910.841667	1999.946289	44.838013
136.646277	5910.841667	1998.981445	-13.220009
136.646277	5910.841667	1998.017578	74.664497
136.646277	5910.841667	1997.052734	13.870672
136.646277	5910.841667	1996.088867	62.158092
136.646277	5910.841667	1995.124023	6.424539
136.646277	5910.841667	1994.159180	-17.051476
136.646277	5910.841667	1993.193359	83.332176
136.646277	5910.841667	1992.228516	-39.106731
136.646277	5910.841667	1991.262695	68.743469
136.646277	5910.841667	1990.296875	-28.827454
136.646277	5910.841667	1989.331055	34.510880
136.646277	5910.841667	1988.365234	13.744139
136.646277	5910.841667	1987.398438	35.067032
136.646277	5910.841667	1986.432617	63.833752
136.646277	5910.841667	1985.465820	8.551844
136.646277	5910.841667	1984.499023	-12.069125
136.646277	5910.841667	1983.532227	14.308881
136.646277	5910.841667	1982.565430	80.245346
136.646277	5910.841667	1981.597656	84.415718
136.646277	5910.841667	1980.629883	88.611763
136.646277	5910.841667	1979.662109	-80.057060
136.646277	5910.841667	1978.694336	116.832420
136.646277	5910.841667	1977.726563	-17.163404
136.646277	5910.841667	1976.758789	16.771006
136.646277	5910.841667	1975.790039	55.652023
136.646277	5910.841667	1974.821289	-33.771637
136.646277	5910.841667	1973.852539	-2.252141
136.646277	5910.841667	1972.883789	41.610336
136.646277	5910.841667	1971.915039	-10.704044
136.646277	5910.841667	1970.945313	30.718588
136.646277	5910.841667	1969.975586	22.840033
136.646277	5910.841667	1969.005859	91.392189
136.646277	5910.841667	1968.036133	31.790939
136.646277	5910.841667	1967.066406	9.187753
136.646277	5910.841667	1966.096680	-30.634039
136.646277	5910.841667	1965.125977	-26.091076
136.646277	5910.841667	1964.155273	-4.296311
136.646277	5910.841667	1963.184570	-44.045856
136.646277	5910.841667	1962.213867	-0.071475
136.646277	5910.841667	1961.242188	19.289392
136.646277	5910.841667	1960.271484	48.499409
136.646277	5910.841667	1959.299805	-55.140736
136.646277	5910.841667	1958.328125	77.408562
136.646277	5910.841667	1957.356445	79.576843
136.646277	5910.841667	1956.384766	118.638863
136.646277	5910.841667	1955.412109	83.945557
136.646277	5910.841667	1954.439453	93.518692
136.646277	5910.841667	1953.467773	51.491081
136.646277	5910.841667	1952.495117	83.199783
136.646277	5910.841667	1951.521484	-10.379064
136.646277	5910.841667	1950.548828	16.435198
136.646277	5910.841667	1949.575195	6.413182
136.646277	5910.841667	1948.601563	-52.701187
136.646277	5910.841667	1947.627930	3.587032
136.646277	5910.841667	1946.654297	35.318436
136.646277	5910.841667	1945.680664	20.422064
136.646277	5910.841667	1944.706055	42.338387
136.646277	5910.841667	1943.732422	-21.600000
136.646277	5910.841667	1942.757813	-16.839855
136.646277	5910.841667	1941.783203	7.539880
136.646277	5910.841667	1940.807617	41.721676
136.646277	5910.841667	1939.833008	56.286278
136.646277	5910.841667	1938.857422	29.188982
136.646277	5910.841667	1937.881836	2.105615
136.646277	5910.841667	1936.906250	-5.366504
136.646277	5910.841667	1935.930664	26.355547
136.646277	5910.841667	1934.955078	-27.639809
136.646277	5910.841667	1933.978516	26.115374
136.646277	5910.841667	1933.001953	-5.823786
136.646277	5910.841667	1932.025391	79.728081
136.646277	5910.841667	1931.048828	-23.168295
136.646277	5910.841667	1930.072266	-8.591559
136.646277	5910.841667	1929.094727	-13.587646
136.646277	5910.841667	1928.118164	18.102924
136.646277	5910.841667	1927.140625	17.995401
136.646277	5910.841667	1926.163086	69.226967
136.646277	5910.841667	1925.184570	-18.882809
136.646277	5910.841667	1924.207031	-43.421585
136.646277	5910.841667	1923.228516	59.102226
136.646277	5910.841667	1922.250000	39.442894
136.646277	5910.841667	1921.271484	-36.386139
136.646277	5910.841667	1920.292969	-21.834927
136.646277	5910.841667	1919.314453	-12.173713
136.646277	5910.841667	1918.334961	75.596436
136.646277	5910.841667	1917.355469	63.267048
136.646277	5910.841667	1916.375977	26.538731
136.646277	5910.841667	1915.396484	67.892120
136.646277	5910.841667	1914.416992	36.050285
136.646277	5910.841667	1913.436523	45.677212
136.646277	5910.841667	1912.457031	50.420937
136.646277	5910.841667	1911.476563	84.414429
136.646277	5910.841667	1910.496094	3.833301
136.646277	5910.841667	1909.515625	47.564236
136.646277	5910.841667	1908.534180	20.616554
136.646277	5910.841667	1907.552734	-25.813219
136.646277	5910.841667	1906.572266	76.341934
136.646277	5910.841667	1905.590820	-18.791748
136.646277	5910.841667	1904.608398	17.579531
136.646277	5910.841667	1903.626953	12.550560
136.646277	5910.841667	1902.644531	75.665176
136.646277	5910.841667	1901.663086	60.884899
136.646277	5910.841667	1900.680664	53.404308
136.646277	5910.841667	1899.698242	-29.483332
136.646277	5910.841667	1898.714844	-41.817883
136.646277	5910.841667	1897.732422	45.538734
136.646277	5910.841667	1896.749023	42.908653
136.646277	5910.841667	1895.765625	59.718952
136.646277	5910.841667	1894.782227	-25.548536
136.646277	5910.841667	1893.798828	-67.055168
136.646277	5910.841667	1892.814453	56.636112
136.646277	5910.841667	1891.831055	39.406025
136.646277	5910.841667	1890.846680	24.604977
136.646277	5910.841667	1889.862305	4.947825
136.646277	5910.841667	1888.877930	-63.256428
136.646277	5910.841667	1887.892578	19.030693
136.646277	5910.841667	1886.908203	72.162529
136.646277	5910.841667	1885.922852	84.025330
136.646277	5910.841667	1884.937500	20.683723
136.646277	5910.841667	1883.952148	1.012162
136.646277	5910.841667	1882.965820	37.109413
136.646277	5910.841667	1881.980469	51.368317
136.646277	5910.841667	1880.994141	21.987331
136.646277	5910.841667	1880.007813	43.500500
136.646277	5910.841667	1879.021484	21.387138
136.646277	5910.841667	1878.035156	76.792831
136.646277	5910.841667	1877.047852	93.419342
136.646277	5910.841667	1876.061523	88.239212
136.646277	5910.841667	1875.074219	20.106337
136.646277	5910.841667	1874.086914	-23.801741
136.646277	5910.841667	1873.098633	-14.457094
136.646277	5910.841667	1872.111328	-14.801805
136.646277	5910.841667	1871.123047	59.843063
136.646277	5910.841667	1870.135742	64.307922
136.646277	5910.841667	1869.147461	73.600555
136.646277	5910.841667	1868.158203	61.121536
136.646277	5910.841667	1867.169922	65.561928
136.646277	5910.841667	1866.180664	89.329247
136.646277	5910.841667	1865.192383	74.415977
136.646277	5910.841667	1864.203125	11.179440
136.646277	5910.841667	1863.213867	66.324738
136.646277	5910.841667	1862.223633	-28.298485
136.646277	5910.841667	1861.234375	-35.963665
136.646277	5910.841667	1860.244141	74.665108
136.646277	5910.841667	1859.253906	4.209592
136.646277	5910.841667	1858.263672	-49.333385
136.646277	5910.841667	1857.273438	-3.934904
136.646277	5910.841667	1856.282227	111.399925
136.646277	5910.841667	1855.291992	45.784840
136.646277	5910.841667	1854.300781	107.998299
136.646277	5910.841667	1853.309570	66.504280
136.646277	5910.841667	1852.317383	5.733202
136.646277	5910.841667	1851.326172	7.642363
136.646277	5910.841667	1850.333984	84.244797
136.646277	5910.841667	1849.342773	-29.521572
136.646277	5910.841667	1848.350586	32.591255
136.646277	5910.841667	1847.357422	-23.336906
136.646277	5910.841667	1846.365234	31.512787
136.646277	5910.841667	1845.372070	23.740334
136.646277	5910.841667	1844.379883	54.475636
136.646277	5910.841667	1843.386719	65.939400
136.646277	5910.841667	1842.393555	55.736691
136.646277	5910.841667	1841.399414	19.067993
136.646277	5910.841667	1840.406250	16.078653
136.646277	5910.841667	1839.412109	92.439644
136.646277	5910.841667	1838.417969	106.253006
136.646277	5910.841667	1837.423828	-48.215118
136.646277	5910.841667	1836.429688	4.059220
136.646277	5910.841667	1835.434570	20.262196
136.646277	5910.841667	1834.440430	43.659721
136.646277	5910.841667	1833.445313	23.804287
136.646277	5910.841667	1832.450195	25.563488
136.646277	5910.841667	1831.454102	-27.911320
136.646277	5910.841667	1830.458984	48.263519
136.646277	5910.841667	1829.462891	40.394585
136.646277	5910.841667	1828.466797	68.518089
136.646277	5910.841667	1827.470703	127.815094
136.646277	5910.841667	1826.474609	14.364367
136.646277	5910.841667	1825.478516	-43.886906
136.646277	5910.841667	1824.481445	5.784735
136.646277	5910.841667	1823.484375	67.418213
136.646277	5910.841667	1822.487305	-5.213596
136.646277	5910.841667	1821.490234	10.849544
136.646277	5910.841667	1820.493164	-1.853995
136.646277	5910.841667	1819.495117	-14.559767
136.646277	5910.841667	1818.498047	-29.662516
136.646277	5910.841667	1817.500000	-35.187347
136.646277	5910.841667	1816.500977	57.450962
136.646277	5910.841667	1815.502930	35.141285
136.646277	5910.841667	1814.504883	130.111908
136.646277	5910.841667	1813.505859	-7.080005
136.646277	5910.841667	1812.506836	1.718059
136.646277	5910.841667	1811.507813	82.268845
136.646277	5910.841667	1810.508789	24.068127
136.646277	5910.841667	1809.508789	-34.117386
136.646277	5910.841667	1808.508789	3.341915
136.646277	5910.841667	1807.508789	21.658482
136.646277	5910.841667	1806.508789	82.978722
136.646277	5910.841667	1805.508789	0.907175
136.646277	5910.841667	1804.508789	43.084393
136.646277	5910.841667	1803.507813	13.585032
136.646277	5910.841667	1802.506836	5.582935
136.646277	5910.841667	1801.505859	-62.111427
136.646277	5910.841667	1800.504883	-27.140097
136.646277	5910.841667	1799.502930	3.038122
136.646277	5910.841667	1798.501953	85.696205
136.646277	5910.841667	1797.500000	46.642815
136.646277	5910.841667	1796.498047	74.387138
136.646277	5910.841667	1795.496094	11.490625
136.646277	5910.841667	1794.493164	65.447578
136.646277	5910.841667	1793.491211	64.547874
136.646277	5910.841667	1792.488281	-45.998646
136.646277	5910.841667	1791.485352	62.731800
136.646277	5910.841667	1790.482422	76.111450
136.646277	5910.841667	1789.478516	91.862244
136.646277	5910.841667	1788.475586	74.258354
136.646277	5910.841667	1787.471680	1.886656
136.646277	5910.841667	1786.467773	27.149469
136.646277	5910.841667	1785.463867	64.299164
136.646277	5910.841667	1784.459961	-43.743797
136.646277	5910.841667	1783.455078	60.018612
136.646277	5910.841667	1782.450195	68.576981
136.646277	5910.841667	1781.445313	41.448822
136.646277	5910.841667	1780.440430	-49.882412
136.646277	5910.841667	1779.435547	-55.589157
136.646277	5910.841667	1778.429688	45.674122
136.646277	5910.841667	1777.424805	73.215897
136.646277	5910.841667	1776.418945	0.937871
136.646277	5910.841667	1775.413086	97.366570
136.646277	5910.841667	1774.406250	13.224213
136.646277	5910.841667	1773.400391	26.481909
136.646277	5910.841667	1772.393555	68.222969
136.646277	5910.841667	1771.386719	41.096851
136.646277	5910.841667	1770.379883	54.327244
136.646277	5910.841667	1769.373047	-20.257675
136.646277	5910.841667	1768.365234	0.087729
136.646277	5910.841667	1767.358398	46.516010
136.646277	5910.841667	1766.350586	28.883865
136.646277	5910.841667	1765.342773	32.595909
136.646277	5910.841667	1764.334961	83.719696
136.646277	5910.841667	1763.326172	49.484127
136.646277	5910.841667	1762.318359	65.027260
136.646277	5910.841667	1761.309570	23.691351
136.646277	5910.841667	1760.300781	62.915337
136.646277	5910.841667	1759.291016	59.484612
136.646277	5910.841667	1758.282227	-12.625081
136.646277	5910.841667	1757.272461	40.777115
136.646277	5910.841667	1756.262695	34.973412
136.646277	5910.841667	1755.252930	22.067616
136.646277	5910.841667	1754.243164	11.529385
136.646277	5910.841667	1753.233398	-34.497433
136.646277	5910.841667	1752.222656	40.127640
136.646277	5910.841667	1751.211914	-27.180113
136.646277	5910.841667	1750.201172	-18.799917
136.646277	5910.841667	1749.190430	72.317474
136.646277	5910.841667	1748.179688	64.122787
136.646277	5910.841667	1747.167969	25.205343
136.646277	5910.841667	1746.156250	7.564178
136.646277	5910.841667	1745.144531	79.694214
136.646277	5910.841667	1744.132813	19.529209
136.646277	5910.841667	1743.121094	25.503304
136.646277	5910.841667	1742.108398	62.163677
136.646277	5910.841667	1741.095703	58.678204
136.646277	5910.841667	1740.083008	31.590265
136.646277	5910.841667	1739.070313	39.903820
136.646277	5910.841667	1738.057617	123.704117
136.646277	5910.841667	1737.043945	-21.325930
136.646277	5910.841667	1736.030273	43.581299
136.646277	5910.841667	1735.016602	73.093819
136.646277	5910.841667	1734.002930	88.447998
136.646277	5910.841667	1732.989258	9.517182
136.646277	5910.841667	1731.974609	-48.178936
136.646277	5910.841667	1730.959961	9.588696
136.646277	5910.841667	1729.945313	22.575983
136.646277	5910.841667	1728.930664	-44.518055
136.646277	5910.841667	1727.916016	3.789172
136.646277	5910.841667	1726.900391	-20.905748
136.646277	5910.841667	1725.885742	-59.715530
136.646277	5910.841667	1724.870117	87.397430
136.646277	5910.841667	1723.853516	-3.187557
136.646277	5910.841667	1722.837891	49.757385
136.646277	5910.841667	1721.822266	-50.197529
136.646277	5910.841667	1720.805664	33.300251
136.646277	5910.841667	1719.789063	50.934273
136.646277	5910.841667	1718.772461	99.117294
136.646277	5910.841667	1717.754883	-21.932415
136.646277	5910.841667	1716.738281	-25.451921
136.646277	5910.841667	1715.720703	22.710848
136.646277	5910.841667	1714.703125	-4.308779
136.646277	5910.841667	1713.685547	-68.893692
136.646277	5910.841667	1712.667969	-60.670681
136.646277	5910.841667	1711.649414	34.402248
136.646277	5910.841667	1710.630859	66.067734
136.646277	5910.841667	1709.612305	-19.608513
136.646277	5910.841667	1708.593750	-48.947250
136.646277	5910.841667	1707.575195	67.154350
136.646277	5910.841667	1706.555664	7.318223
136.646277	5910.841667	1705.536133	-14.980318
136.646277	5910.841667	1704.516602	-58.370872
136.646277	5910.841667	1703.497070	-40.806038
136.646277	5910.841667	1702.477539	-32.623051
136.646277	5910.841667	1701.457031	27.099461
136.646277	5910.841667	1700.437500	35.263252
136.646277	5910.841667	1699.416992	15.316869
136.646277	5910.841667	1698.395508	44.549774
136.646277	5910.841667	1697.375000	36.312458
136.646277	5910.841667	1696.354492	-9.374462
136.646277	5910.841667	1695.333008	-38.664204
136.646277	5910.841667	1694.311523	105.202118
136.646277	5910.841667	1693.290039	3.379077
136.646277	5910.841667	1692.267578	55.961388
136.646277	5910.841667	1691.246094	0.953840
136.646277	5910.841667	1690.223633	23.119905
136.646277	5910.841667	1689.201172	-20.175331
136.646277	5910.841667	1688.178711	-0.352850
136.646277	5910.841667	1687.155273	-27.273029
136.646277	5910.841667	1686.132813	-51.846836
136.646277	5910.841667	1685.109375	-25.026148
136.646277	5910.841667	1684.085938	13.460013
136.646277	5910.841667	1683.062500	9.902946
136.646277	5910.841667	1682.039063	15.684031
136.646277	5910.841667	1681.014648	-18.216047
136.646277	5910.841667	1679.990234	-33.435738
136.646277	5910.841667	1678.965820	-1.988795
136.646277	5910.841667	1677.941406	59.769344
136.646277	5910.841667	1676.916992	23.551977
136.646277	5910.841667	1675.891602	-40.633488
136.646277	5910.841667	1674.866211	56.062790
136.646277	5910.841667	1673.840820	40.842010
136.646277	5910.841667	1672.815430	81.555534
136.646277	5910.841667	1671.790039	26.725971
136.646277	5910.841667	1670.763672	16.176416
136.646277	5910.841667	1669.737305	12.617538
136.646277	5910.841667	1668.710938	25.359798
136.646277	5910.841667	1667.684570	17.143585
136.646277	5910.841667	1666.658203	-56.244568
136.646277	5910.841667	1665.630859	77.517578
136.646277	5910.841667	1664.603516	90.235535
136.646277	5910.841667	1663.576172	33.158604
136.646277	5910.841667	1662.548828	45.879841
136.646277	5910.841667	1661.520508	-29.770954
136.646277	5910.841667	1660.493164	8.532189
136.646277	5910.841667	1659.464844	7.302601
136.646277	5910.841667	1658.436523	40.934666
136.646277	5910.841667	1657.408203	-4.449635
136.646277	5910.841667	1656.378906	96.543221
136.646277	5910.841667	1655.350586	-6.902522
136.646277	5910.841667	1654.321289	-38.318089
136.646277	5910.841667	1653.291992	4.577257
136.646277	5910.841667	1652.261719	47.455482
136.646277	5910.841667	1651.232422	53.182953
136.646277	5910.841667	1650.202148	63.548767
136.646277	5910.841667	1649.171875	85.511017
136.646277	5910.841667	1648.141602	26.279459
136.646277	5910.841667	1647.111328	6.496453
136.646277	5910.841667	1646.080078	-15.597912
136.646277	5910.841667	1645.049805	106.048386
136.646277	5910.841667	1644.018555	88.579681
136.646277	5910.841667	1642.987305	8.549886
136.646277	5910.841667	1641.955078	0.374631
136.646277	5910.841667	1640.923828	8.418800
136.646277	5910.841667	1639.891602	2.563787
136.646277	5910.841667	1638.859375	19.867170
136.646277	5910.841667	1637.827148	78.836060
136.646277	5910.841667	1636.794922	79.916405
136.646277	5910.841667	1635.761719	122.652145
136.646277	5910.841667	1634.729492	33.488705
136.646277	5910.841667	1633.696289	64.651611
136.646277	5910.841667	1632.662109	-26.778898
136.646277	5910.841667	1631.628906	34.446434
136.646277	5910.841667	1630.594727	47.096958
136.646277	5910.841667	1629.561523	82.859200
136.646277	5910.841667	1628.527344	130.163269
136.646277	5910.841667	1627.493164	78.093224
136.646277	5910.841667	1626.458008	60.696182
136.646277	5910.841667	1625.423828	22.520338
136.646277	5910.841667	1624.388672	76.729958
136.646277	5910.841667	1623.353516	70.890289
136.646277	5910.841667	1622.318359	76.595840
136.646277	5910.841667	1621.282227	93.839294
136.646277	5910.841667	1620.247070	55.698364
136.646277	5910.841667	1619.210938	91.397400
136.646277	5910.841667	1618.174805	-22.843338
136.646277	5910.841667	1617.137695	-7.896395
136.646277	5910.841667	1616.101563	80.828384
136.646277	5910.841667	1615.064453	109.583191
136.646277	5910.841667	1614.027344	50.746487
136.646277	5910.841667	1612.990234	51.846863
136.646277	5910.841667	1611.953125	62.163399
136.646277	5910.841667	1610.916016	146.187088
136.646277	5910.841667	1609.877930	73.575920
136.646277	5910.841667	1608.839844	180.592133
136.646277	5910.841667	1607.801758	94.193016
136.646277	5910.841667	1606.763672	35.448685
136.646277	5910.841667	1605.724609	98.690941
136.646277	5910.841667	1604.685547	111.293846
136.646277	5910.841667	1603.646484	84.788429
136.646277	5910.841667	1602.607422	97.392242
136.646277	5910.841667	1601.568359	73.202492
136.646277	5910.841667	1600.528320	35.229454
136.646277	5910.841667	1599.489258	80.019539
136.646277	5910.841667	1598.449219	92.620384
136.646277	5910.841667	1597.408203	141.978806
136.646277	5910.841667	1596.368164	108.623383
136.646277	5910.841667	1595.327148	114.325638
136.646277	5910.841667	1594.287109	177.434692
136.646277	5910.841667	1593.246094	86.701340
136.646277	5910.841667	1592.204102	78.637329
136.646277	5910.841667	1591.163086	95.823212
136.646277	5910.841667	1590.121094	122.181175
136.646277	5910.841667	1589.079102	68.240776
136.646277	5910.841667	1588.037109	69.368729
136.646277	5910.841667	1586.995117	139.291611
136.646277	5910.841667	1585.953125	142.701859
136.646277	5910.841667	1584.910156	132.359039
136.646277	5910.841667	1583.867188	140.356415
136.646277	5910.841667	1582.824219	111.691795
136.646277	5910.841667	1581.781250	101.367424
136.646277	5910.841667	1580.737305	93.338928
136.646277	5910.841667	1579.693359	108.215431
136.646277	5910.841667	1578.649414	77.297974
136.646277	5910.841667	1577.605469	128.801666
136.646277	5910.841667	1576.561523	22.372057
136.646277	5910.841667	1575.516602	108.193054
136.646277	5910.841667	1574.472656	65.870285
136.646277	5910.841667	1573.427734	71.598717
136.646277	5910.841667	1572.381836	123.063446
136.646277	5910.841667	1571.336914	103.633011
136.646277	5910.841667	1570.291016	104.785362
136.646277	5910.841667	1569.246094	121.939079
136.646277	5910.841667	1568.200195	196.213715
136.646277	5910.841667	1567.153320	176.792664
136.646277	5910.841667	1566.107422	132.257080
136.646277	5910.841667	1565.060547	142.549545
136.646277	5910.841667	1564.013672	63.793762
136.646277	5910.841667	1562.966797	99.211693
136.646277	5910.841667	1561.919922	93.536034
136.646277	5910.841667	1560.872070	142.630173
136.646277	5910.841667	1559.825195	162.049606
136.646277	5910.841667	1558.777344	129.000381
136.646277	5910.841667	1557.729492	130.175049
