#X		#Y		#Wave		#Intensity
146.286702	5421.175000	1999.946289	-71.202988
146.286702	5421.175000	1998.981445	235.302368
146.286702	5421.175000	1998.017578	-76.722420
146.286702	5421.175000	1997.052734	67.325302
146.286702	5421.175000	1996.088867	15.570872
146.286702	5421.175000	1995.124023	48.045517
146.286702	5421.175000	1994.159180	1.239830
146.286702	5421.175000	1993.193359	125.301125
146.286702	5421.175000	1992.228516	-0.751200
146.286702	5421.175000	1991.262695	96.014282
146.286702	5421.175000	1990.296875	118.487045
146.286702	5421.175000	1989.331055	-57.012833
146.286702	5421.175000	1988.365234	-2.375723
146.286702	5421.175000	1987.398438	-12.079017
146.286702	5421.175000	1986.432617	47.461601
146.286702	5421.175000	1985.465820	-194.684998
146.286702	5421.175000	1984.499023	136.790024
146.286702	5421.175000	1983.532227	70.195877
146.286702	5421.175000	1982.565430	72.816841
146.286702	5421.175000	1981.597656	95.197845
146.286702	5421.175000	1980.629883	-146.755676
146.286702	5421.175000	1979.662109	-77.421104
146.286702	5421.175000	1978.694336	214.130783
146.286702	5421.175000	1977.726563	-5.495989
146.286702	5421.175000	1976.758789	155.102371
146.286702	5421.175000	1975.790039	24.414042
146.286702	5421.175000	1974.821289	-17.394434
146.286702	5421.175000	1973.852539	130.779434
146.286702	5421.175000	1972.883789	51.967789
146.286702	5421.175000	1971.915039	64.435188
146.286702	5421.175000	1970.945313	42.378204
146.286702	5421.175000	1969.975586	64.705986
146.286702	5421.175000	1969.005859	40.196217
146.286702	5421.175000	1968.036133	-36.053604
146.286702	5421.175000	1967.066406	72.519821
146.286702	5421.175000	1966.096680	-77.604691
146.286702	5421.175000	1965.125977	-23.244326
146.286702	5421.175000	1964.155273	151.762894
146.286702	5421.175000	1963.184570	-0.745386
146.286702	5421.175000	1962.213867	51.120235
146.286702	5421.175000	1961.242188	-29.932070
146.286702	5421.175000	1960.271484	78.524292
146.286702	5421.175000	1959.299805	76.233551
146.286702	5421.175000	1958.328125	59.190079
146.286702	5421.175000	1957.356445	17.564463
146.286702	5421.175000	1956.384766	212.010178
146.286702	5421.175000	1955.412109	-1.706558
146.286702	5421.175000	1954.439453	52.577034
146.286702	5421.175000	1953.467773	-99.581314
146.286702	5421.175000	1952.495117	-146.026733
146.286702	5421.175000	1951.521484	77.774109
146.286702	5421.175000	1950.548828	58.342266
146.286702	5421.175000	1949.575195	105.225693
146.286702	5421.175000	1948.601563	-0.125371
146.286702	5421.175000	1947.627930	56.582584
146.286702	5421.175000	1946.654297	-14.347662
146.286702	5421.175000	1945.680664	-99.968330
146.286702	5421.175000	1944.706055	-237.072815
146.286702	5421.175000	1943.732422	50.236271
146.286702	5421.175000	1942.757813	-74.570267
146.286702	5421.175000	1941.783203	58.136417
146.286702	5421.175000	1940.807617	46.157661
146.286702	5421.175000	1939.833008	19.483501
146.286702	5421.175000	1938.857422	22.232735
146.286702	5421.175000	1937.881836	32.337360
146.286702	5421.175000	1936.906250	-55.544960
146.286702	5421.175000	1935.930664	-38.070053
146.286702	5421.175000	1934.955078	104.294243
146.286702	5421.175000	1933.978516	-5.570673
146.286702	5421.175000	1933.001953	36.380894
146.286702	5421.175000	1932.025391	-26.917553
146.286702	5421.175000	1931.048828	-41.246872
146.286702	5421.175000	1930.072266	44.741947
146.286702	5421.175000	1929.094727	-177.501831
146.286702	5421.175000	1928.118164	23.435436
146.286702	5421.175000	1927.140625	136.276108
146.286702	5421.175000	1926.163086	31.500843
146.286702	5421.175000	1925.184570	61.202469
146.286702	5421.175000	1924.207031	61.572861
146.286702	5421.175000	1923.228516	-82.210022
146.286702	5421.175000	1922.250000	11.025353
146.286702	5421.175000	1921.271484	128.653824
146.286702	5421.175000	1920.292969	-37.025928
146.286702	5421.175000	1919.314453	68.368225
146.286702	5421.175000	1918.334961	32.144451
146.286702	5421.175000	1917.355469	169.221298
146.286702	5421.175000	1916.375977	-3.648981
146.286702	5421.175000	1915.396484	128.509995
146.286702	5421.175000	1914.416992	75.241005
146.286702	5421.175000	1913.436523	48.820450
146.286702	5421.175000	1912.457031	-55.613667
146.286702	5421.175000	1911.476563	103.283653
146.286702	5421.175000	1910.496094	64.692635
146.286702	5421.175000	1909.515625	11.496362
146.286702	5421.175000	1908.534180	70.400436
146.286702	5421.175000	1907.552734	124.412209
146.286702	5421.175000	1906.572266	129.693802
146.286702	5421.175000	1905.590820	110.621979
146.286702	5421.175000	1904.608398	-127.564255
146.286702	5421.175000	1903.626953	43.291611
146.286702	5421.175000	1902.644531	-206.961029
146.286702	5421.175000	1901.663086	-114.019699
146.286702	5421.175000	1900.680664	-81.936363
146.286702	5421.175000	1899.698242	-18.243259
146.286702	5421.175000	1898.714844	8.945379
146.286702	5421.175000	1897.732422	-63.567986
146.286702	5421.175000	1896.749023	-111.745483
146.286702	5421.175000	1895.765625	153.640900
146.286702	5421.175000	1894.782227	25.243259
146.286702	5421.175000	1893.798828	152.009598
146.286702	5421.175000	1892.814453	171.839325
146.286702	5421.175000	1891.831055	-68.219498
146.286702	5421.175000	1890.846680	-53.217377
146.286702	5421.175000	1889.862305	17.617636
146.286702	5421.175000	1888.877930	27.737434
146.286702	5421.175000	1887.892578	200.455978
146.286702	5421.175000	1886.908203	-17.560495
146.286702	5421.175000	1885.922852	-17.155006
146.286702	5421.175000	1884.937500	-82.244560
146.286702	5421.175000	1883.952148	163.104187
146.286702	5421.175000	1882.965820	71.323814
146.286702	5421.175000	1881.980469	69.270546
146.286702	5421.175000	1880.994141	202.944092
146.286702	5421.175000	1880.007813	43.339569
146.286702	5421.175000	1879.021484	67.927437
146.286702	5421.175000	1878.035156	-4.396085
146.286702	5421.175000	1877.047852	25.023251
146.286702	5421.175000	1876.061523	10.838593
146.286702	5421.175000	1875.074219	-68.717003
146.286702	5421.175000	1874.086914	127.699753
146.286702	5421.175000	1873.098633	-72.869705
146.286702	5421.175000	1872.111328	62.967075
146.286702	5421.175000	1871.123047	19.720451
146.286702	5421.175000	1870.135742	-9.003716
146.286702	5421.175000	1869.147461	80.772179
146.286702	5421.175000	1868.158203	66.535660
146.286702	5421.175000	1867.169922	204.595779
146.286702	5421.175000	1866.180664	-92.462502
146.286702	5421.175000	1865.192383	127.719223
146.286702	5421.175000	1864.203125	21.638025
146.286702	5421.175000	1863.213867	130.577713
146.286702	5421.175000	1862.223633	87.309616
146.286702	5421.175000	1861.234375	205.834793
146.286702	5421.175000	1860.244141	138.406082
146.286702	5421.175000	1859.253906	112.026604
146.286702	5421.175000	1858.263672	39.792789
146.286702	5421.175000	1857.273438	182.323074
146.286702	5421.175000	1856.282227	192.102585
146.286702	5421.175000	1855.291992	105.388390
146.286702	5421.175000	1854.300781	-118.763557
146.286702	5421.175000	1853.309570	52.574715
146.286702	5421.175000	1852.317383	-60.618996
146.286702	5421.175000	1851.326172	96.158043
146.286702	5421.175000	1850.333984	64.904099
146.286702	5421.175000	1849.342773	50.514549
146.286702	5421.175000	1848.350586	79.475410
146.286702	5421.175000	1847.357422	-31.274597
146.286702	5421.175000	1846.365234	-52.902527
146.286702	5421.175000	1845.372070	-26.387756
146.286702	5421.175000	1844.379883	33.801937
146.286702	5421.175000	1843.386719	-55.252808
146.286702	5421.175000	1842.393555	14.514806
146.286702	5421.175000	1841.399414	33.721622
146.286702	5421.175000	1840.406250	86.580147
146.286702	5421.175000	1839.412109	19.165556
146.286702	5421.175000	1838.417969	7.059848
146.286702	5421.175000	1837.423828	-38.710789
146.286702	5421.175000	1836.429688	146.246048
146.286702	5421.175000	1835.434570	40.360588
146.286702	5421.175000	1834.440430	-10.242342
146.286702	5421.175000	1833.445313	-113.688416
146.286702	5421.175000	1832.450195	59.069801
146.286702	5421.175000	1831.454102	-10.768933
146.286702	5421.175000	1830.458984	99.454010
146.286702	5421.175000	1829.462891	-25.604439
146.286702	5421.175000	1828.466797	2.952849
146.286702	5421.175000	1827.470703	-33.299572
146.286702	5421.175000	1826.474609	28.797323
146.286702	5421.175000	1825.478516	126.829819
146.286702	5421.175000	1824.481445	8.990233
146.286702	5421.175000	1823.484375	138.120117
146.286702	5421.175000	1822.487305	15.492762
146.286702	5421.175000	1821.490234	43.879528
146.286702	5421.175000	1820.493164	-93.097153
146.286702	5421.175000	1819.495117	-28.803143
146.286702	5421.175000	1818.498047	66.588104
146.286702	5421.175000	1817.500000	-24.871336
146.286702	5421.175000	1816.500977	94.385765
146.286702	5421.175000	1815.502930	53.189964
146.286702	5421.175000	1814.504883	55.072849
146.286702	5421.175000	1813.505859	131.116226
146.286702	5421.175000	1812.506836	-161.338623
146.286702	5421.175000	1811.507813	65.380089
146.286702	5421.175000	1810.508789	-16.527056
146.286702	5421.175000	1809.508789	107.217010
146.286702	5421.175000	1808.508789	108.967323
146.286702	5421.175000	1807.508789	141.771164
146.286702	5421.175000	1806.508789	-57.270466
146.286702	5421.175000	1805.508789	71.086975
146.286702	5421.175000	1804.508789	294.933258
146.286702	5421.175000	1803.507813	143.682571
146.286702	5421.175000	1802.506836	207.390762
146.286702	5421.175000	1801.505859	15.585122
146.286702	5421.175000	1800.504883	-4.296432
146.286702	5421.175000	1799.502930	71.273994
146.286702	5421.175000	1798.501953	289.969940
146.286702	5421.175000	1797.500000	141.153336
146.286702	5421.175000	1796.498047	123.564316
146.286702	5421.175000	1795.496094	117.885910
146.286702	5421.175000	1794.493164	97.880310
146.286702	5421.175000	1793.491211	39.719788
146.286702	5421.175000	1792.488281	79.282257
146.286702	5421.175000	1791.485352	23.487106
146.286702	5421.175000	1790.482422	174.977859
146.286702	5421.175000	1789.478516	204.898956
146.286702	5421.175000	1788.475586	37.108429
146.286702	5421.175000	1787.471680	-4.435428
146.286702	5421.175000	1786.467773	73.055542
146.286702	5421.175000	1785.463867	110.029572
146.286702	5421.175000	1784.459961	56.533051
146.286702	5421.175000	1783.455078	-27.899551
146.286702	5421.175000	1782.450195	63.724110
146.286702	5421.175000	1781.445313	79.178452
146.286702	5421.175000	1780.440430	-93.263077
146.286702	5421.175000	1779.435547	119.516731
146.286702	5421.175000	1778.429688	-7.745098
146.286702	5421.175000	1777.424805	76.551620
146.286702	5421.175000	1776.418945	153.664627
146.286702	5421.175000	1775.413086	-6.856469
146.286702	5421.175000	1774.406250	-31.943624
146.286702	5421.175000	1773.400391	71.206635
146.286702	5421.175000	1772.393555	3.331386
146.286702	5421.175000	1771.386719	39.918343
146.286702	5421.175000	1770.379883	62.228779
146.286702	5421.175000	1769.373047	-60.250935
146.286702	5421.175000	1768.365234	37.951431
146.286702	5421.175000	1767.358398	-18.096718
146.286702	5421.175000	1766.350586	134.569016
146.286702	5421.175000	1765.342773	28.681610
146.286702	5421.175000	1764.334961	69.808014
146.286702	5421.175000	1763.326172	82.450157
146.286702	5421.175000	1762.318359	23.970572
146.286702	5421.175000	1761.309570	1.032226
146.286702	5421.175000	1760.300781	-31.394014
146.286702	5421.175000	1759.291016	87.760612
146.286702	5421.175000	1758.282227	206.851974
146.286702	5421.175000	1757.272461	34.645908
146.286702	5421.175000	1756.262695	-130.412979
146.286702	5421.175000	1755.252930	-108.451080
146.286702	5421.175000	1754.243164	-65.220726
146.286702	5421.175000	1753.233398	30.023783
146.286702	5421.175000	1752.222656	103.919952
146.286702	5421.175000	1751.211914	-110.763802
146.286702	5421.175000	1750.201172	-70.012711
146.286702	5421.175000	1749.190430	-86.035660
146.286702	5421.175000	1748.179688	-26.434587
146.286702	5421.175000	1747.167969	18.941620
146.286702	5421.175000	1746.156250	38.291172
146.286702	5421.175000	1745.144531	-197.515686
146.286702	5421.175000	1744.132813	3.692538
146.286702	5421.175000	1743.121094	25.337862
146.286702	5421.175000	1742.108398	129.586456
146.286702	5421.175000	1741.095703	-14.077232
146.286702	5421.175000	1740.083008	83.021240
146.286702	5421.175000	1739.070313	50.285831
146.286702	5421.175000	1738.057617	8.107296
146.286702	5421.175000	1737.043945	-29.358509
146.286702	5421.175000	1736.030273	62.875401
146.286702	5421.175000	1735.016602	-14.705480
146.286702	5421.175000	1734.002930	-179.497482
146.286702	5421.175000	1732.989258	-122.694786
146.286702	5421.175000	1731.974609	-188.470703
146.286702	5421.175000	1730.959961	-56.333782
146.286702	5421.175000	1729.945313	-44.398586
146.286702	5421.175000	1728.930664	-171.436447
146.286702	5421.175000	1727.916016	-6.465267
146.286702	5421.175000	1726.900391	80.734161
146.286702	5421.175000	1725.885742	-60.427933
146.286702	5421.175000	1724.870117	54.954453
146.286702	5421.175000	1723.853516	113.804787
146.286702	5421.175000	1722.837891	-97.907524
146.286702	5421.175000	1721.822266	57.350674
146.286702	5421.175000	1720.805664	-13.214672
146.286702	5421.175000	1719.789063	-1.481536
146.286702	5421.175000	1718.772461	-93.195335
146.286702	5421.175000	1717.754883	-10.981216
146.286702	5421.175000	1716.738281	92.336952
146.286702	5421.175000	1715.720703	40.546295
146.286702	5421.175000	1714.703125	-55.866341
146.286702	5421.175000	1713.685547	-30.142948
146.286702	5421.175000	1712.667969	-72.532837
146.286702	5421.175000	1711.649414	2.448649
146.286702	5421.175000	1710.630859	-47.003571
146.286702	5421.175000	1709.612305	156.976929
146.286702	5421.175000	1708.593750	-28.588184
146.286702	5421.175000	1707.575195	-56.936966
146.286702	5421.175000	1706.555664	20.242830
146.286702	5421.175000	1705.536133	-87.855766
146.286702	5421.175000	1704.516602	-62.299923
146.286702	5421.175000	1703.497070	7.766042
146.286702	5421.175000	1702.477539	-15.943298
146.286702	5421.175000	1701.457031	-13.887222
146.286702	5421.175000	1700.437500	-126.623093
146.286702	5421.175000	1699.416992	175.213516
146.286702	5421.175000	1698.395508	48.404533
146.286702	5421.175000	1697.375000	76.152428
146.286702	5421.175000	1696.354492	-6.134410
146.286702	5421.175000	1695.333008	-22.877226
146.286702	5421.175000	1694.311523	-60.682659
146.286702	5421.175000	1693.290039	16.144342
146.286702	5421.175000	1692.267578	-5.305761
146.286702	5421.175000	1691.246094	-5.708808
146.286702	5421.175000	1690.223633	26.607586
146.286702	5421.175000	1689.201172	-8.887492
146.286702	5421.175000	1688.178711	-39.704060
146.286702	5421.175000	1687.155273	-72.858620
146.286702	5421.175000	1686.132813	-166.747147
146.286702	5421.175000	1685.109375	-78.421928
146.286702	5421.175000	1684.085938	84.590553
146.286702	5421.175000	1683.062500	25.719740
146.286702	5421.175000	1682.039063	-9.792419
146.286702	5421.175000	1681.014648	62.060486
146.286702	5421.175000	1679.990234	3.201231
146.286702	5421.175000	1678.965820	0.350763
146.286702	5421.175000	1677.941406	16.154839
146.286702	5421.175000	1676.916992	73.925713
146.286702	5421.175000	1675.891602	138.659042
146.286702	5421.175000	1674.866211	82.135063
146.286702	5421.175000	1673.840820	-7.004879
146.286702	5421.175000	1672.815430	-68.151642
146.286702	5421.175000	1671.790039	59.443085
146.286702	5421.175000	1670.763672	238.227570
146.286702	5421.175000	1669.737305	156.087997
146.286702	5421.175000	1668.710938	-65.739494
146.286702	5421.175000	1667.684570	80.358109
146.286702	5421.175000	1666.658203	68.112511
146.286702	5421.175000	1665.630859	79.136543
146.286702	5421.175000	1664.603516	-14.552723
146.286702	5421.175000	1663.576172	26.717335
146.286702	5421.175000	1662.548828	93.552933
146.286702	5421.175000	1661.520508	-18.701674
146.286702	5421.175000	1660.493164	85.310692
146.286702	5421.175000	1659.464844	93.970673
146.286702	5421.175000	1658.436523	77.060493
146.286702	5421.175000	1657.408203	234.427109
146.286702	5421.175000	1656.378906	45.572968
146.286702	5421.175000	1655.350586	54.226349
146.286702	5421.175000	1654.321289	206.852859
146.286702	5421.175000	1653.291992	229.396820
146.286702	5421.175000	1652.261719	340.140533
146.286702	5421.175000	1651.232422	167.689651
146.286702	5421.175000	1650.202148	252.876038
146.286702	5421.175000	1649.171875	154.746063
146.286702	5421.175000	1648.141602	205.108582
146.286702	5421.175000	1647.111328	225.302734
146.286702	5421.175000	1646.080078	115.639587
146.286702	5421.175000	1645.049805	189.165253
146.286702	5421.175000	1644.018555	327.557770
146.286702	5421.175000	1642.987305	333.809814
146.286702	5421.175000	1641.955078	247.381393
146.286702	5421.175000	1640.923828	258.283447
146.286702	5421.175000	1639.891602	178.855637
146.286702	5421.175000	1638.859375	270.811859
146.286702	5421.175000	1637.827148	376.625946
146.286702	5421.175000	1636.794922	338.893890
146.286702	5421.175000	1635.761719	305.804749
146.286702	5421.175000	1634.729492	446.266815
146.286702	5421.175000	1633.696289	135.580338
146.286702	5421.175000	1632.662109	289.898865
146.286702	5421.175000	1631.628906	367.856293
146.286702	5421.175000	1630.594727	253.892044
146.286702	5421.175000	1629.561523	385.000275
146.286702	5421.175000	1628.527344	347.351898
146.286702	5421.175000	1627.493164	312.034210
146.286702	5421.175000	1626.458008	380.689911
146.286702	5421.175000	1625.423828	333.842468
146.286702	5421.175000	1624.388672	256.995300
146.286702	5421.175000	1623.353516	374.125336
146.286702	5421.175000	1622.318359	345.789490
146.286702	5421.175000	1621.282227	488.253571
146.286702	5421.175000	1620.247070	303.012573
146.286702	5421.175000	1619.210938	265.497314
146.286702	5421.175000	1618.174805	364.091858
146.286702	5421.175000	1617.137695	499.550354
146.286702	5421.175000	1616.101563	568.103088
146.286702	5421.175000	1615.064453	535.204407
146.286702	5421.175000	1614.027344	322.555145
146.286702	5421.175000	1612.990234	427.994537
146.286702	5421.175000	1611.953125	491.931976
146.286702	5421.175000	1610.916016	535.123535
146.286702	5421.175000	1609.877930	536.850708
146.286702	5421.175000	1608.839844	517.864807
146.286702	5421.175000	1607.801758	549.541931
146.286702	5421.175000	1606.763672	473.040619
146.286702	5421.175000	1605.724609	470.214142
146.286702	5421.175000	1604.685547	644.556335
146.286702	5421.175000	1603.646484	485.300385
146.286702	5421.175000	1602.607422	533.103210
146.286702	5421.175000	1601.568359	445.235138
146.286702	5421.175000	1600.528320	617.190613
146.286702	5421.175000	1599.489258	570.737671
146.286702	5421.175000	1598.449219	441.581940
146.286702	5421.175000	1597.408203	595.090881
146.286702	5421.175000	1596.368164	502.760406
146.286702	5421.175000	1595.327148	529.904663
146.286702	5421.175000	1594.287109	671.867126
146.286702	5421.175000	1593.246094	432.681793
146.286702	5421.175000	1592.204102	478.223816
146.286702	5421.175000	1591.163086	340.173126
146.286702	5421.175000	1590.121094	397.216492
146.286702	5421.175000	1589.079102	575.834412
146.286702	5421.175000	1588.037109	435.592407
146.286702	5421.175000	1586.995117	318.351135
146.286702	5421.175000	1585.953125	357.072205
146.286702	5421.175000	1584.910156	391.205444
146.286702	5421.175000	1583.867188	301.586121
146.286702	5421.175000	1582.824219	331.166138
146.286702	5421.175000	1581.781250	248.497925
146.286702	5421.175000	1580.737305	369.723267
146.286702	5421.175000	1579.693359	197.800415
146.286702	5421.175000	1578.649414	284.678345
146.286702	5421.175000	1577.605469	117.451485
146.286702	5421.175000	1576.561523	277.581451
146.286702	5421.175000	1575.516602	256.896576
146.286702	5421.175000	1574.472656	396.381439
146.286702	5421.175000	1573.427734	343.694946
146.286702	5421.175000	1572.381836	243.020493
146.286702	5421.175000	1571.336914	240.720886
146.286702	5421.175000	1570.291016	357.307251
146.286702	5421.175000	1569.246094	206.466537
146.286702	5421.175000	1568.200195	231.648941
146.286702	5421.175000	1567.153320	71.785843
146.286702	5421.175000	1566.107422	293.459595
146.286702	5421.175000	1565.060547	115.416344
146.286702	5421.175000	1564.013672	163.503769
146.286702	5421.175000	1562.966797	289.207397
146.286702	5421.175000	1561.919922	97.634804
