#X		#Y		#Wave		#Intensity
625.897872	5991.636667	1999.946289	-113.149742
625.897872	5991.636667	1998.981445	27.291754
625.897872	5991.636667	1998.017578	94.168571
625.897872	5991.636667	1997.052734	158.494324
625.897872	5991.636667	1996.088867	22.057573
625.897872	5991.636667	1995.124023	-119.328529
625.897872	5991.636667	1994.159180	51.361431
625.897872	5991.636667	1993.193359	18.892000
625.897872	5991.636667	1992.228516	45.810776
625.897872	5991.636667	1991.262695	55.352268
625.897872	5991.636667	1990.296875	45.052689
625.897872	5991.636667	1989.331055	212.877258
625.897872	5991.636667	1988.365234	209.899582
625.897872	5991.636667	1987.398438	70.844719
625.897872	5991.636667	1986.432617	-45.935776
625.897872	5991.636667	1985.465820	7.904277
625.897872	5991.636667	1984.499023	81.469475
625.897872	5991.636667	1983.532227	4.204344
625.897872	5991.636667	1982.565430	141.935226
625.897872	5991.636667	1981.597656	-21.845634
625.897872	5991.636667	1980.629883	-5.260184
625.897872	5991.636667	1979.662109	-25.755619
625.897872	5991.636667	1978.694336	-24.044781
625.897872	5991.636667	1977.726563	49.241486
625.897872	5991.636667	1976.758789	-146.587265
625.897872	5991.636667	1975.790039	-33.862335
625.897872	5991.636667	1974.821289	-32.241829
625.897872	5991.636667	1973.852539	-116.990494
625.897872	5991.636667	1972.883789	30.136679
625.897872	5991.636667	1971.915039	31.685427
625.897872	5991.636667	1970.945313	18.421875
625.897872	5991.636667	1969.975586	103.756256
625.897872	5991.636667	1969.005859	149.605331
625.897872	5991.636667	1968.036133	62.346786
625.897872	5991.636667	1967.066406	-22.430782
625.897872	5991.636667	1966.096680	-6.191542
625.897872	5991.636667	1965.125977	46.973938
625.897872	5991.636667	1964.155273	8.992450
625.897872	5991.636667	1963.184570	44.874367
625.897872	5991.636667	1962.213867	169.348785
625.897872	5991.636667	1961.242188	-50.795109
625.897872	5991.636667	1960.271484	-123.227760
625.897872	5991.636667	1959.299805	-114.455429
625.897872	5991.636667	1958.328125	-142.592392
625.897872	5991.636667	1957.356445	35.853043
625.897872	5991.636667	1956.384766	145.375473
625.897872	5991.636667	1955.412109	158.970917
625.897872	5991.636667	1954.439453	93.898094
625.897872	5991.636667	1953.467773	-49.798122
625.897872	5991.636667	1952.495117	-43.568584
625.897872	5991.636667	1951.521484	129.698364
625.897872	5991.636667	1950.548828	76.930901
625.897872	5991.636667	1949.575195	137.137054
625.897872	5991.636667	1948.601563	-16.287807
625.897872	5991.636667	1947.627930	-22.376596
625.897872	5991.636667	1946.654297	-126.640762
625.897872	5991.636667	1945.680664	-7.573209
625.897872	5991.636667	1944.706055	187.500519
625.897872	5991.636667	1943.732422	161.733154
625.897872	5991.636667	1942.757813	18.252668
625.897872	5991.636667	1941.783203	39.105705
625.897872	5991.636667	1940.807617	40.333839
625.897872	5991.636667	1939.833008	164.112244
625.897872	5991.636667	1938.857422	-6.235915
625.897872	5991.636667	1937.881836	247.356491
625.897872	5991.636667	1936.906250	108.894463
625.897872	5991.636667	1935.930664	-105.447105
625.897872	5991.636667	1934.955078	-79.729637
625.897872	5991.636667	1933.978516	70.842201
625.897872	5991.636667	1933.001953	45.105030
625.897872	5991.636667	1932.025391	53.637997
625.897872	5991.636667	1931.048828	211.430389
625.897872	5991.636667	1930.072266	-0.265828
625.897872	5991.636667	1929.094727	-148.289154
625.897872	5991.636667	1928.118164	163.516922
625.897872	5991.636667	1927.140625	-35.837139
625.897872	5991.636667	1926.163086	55.800621
625.897872	5991.636667	1925.184570	100.959785
625.897872	5991.636667	1924.207031	31.239269
625.897872	5991.636667	1923.228516	-23.797844
625.897872	5991.636667	1922.250000	87.297264
625.897872	5991.636667	1921.271484	-16.586803
625.897872	5991.636667	1920.292969	18.756886
625.897872	5991.636667	1919.314453	137.094833
625.897872	5991.636667	1918.334961	33.247555
625.897872	5991.636667	1917.355469	144.208755
625.897872	5991.636667	1916.375977	-27.934786
625.897872	5991.636667	1915.396484	58.590244
625.897872	5991.636667	1914.416992	23.115732
625.897872	5991.636667	1913.436523	109.589066
625.897872	5991.636667	1912.457031	-62.437740
625.897872	5991.636667	1911.476563	72.766167
625.897872	5991.636667	1910.496094	-101.637558
625.897872	5991.636667	1909.515625	-149.259460
625.897872	5991.636667	1908.534180	10.233554
625.897872	5991.636667	1907.552734	8.881042
625.897872	5991.636667	1906.572266	75.720650
625.897872	5991.636667	1905.590820	67.038780
625.897872	5991.636667	1904.608398	-148.595444
625.897872	5991.636667	1903.626953	81.309448
625.897872	5991.636667	1902.644531	-17.438681
625.897872	5991.636667	1901.663086	49.307922
625.897872	5991.636667	1900.680664	64.933235
625.897872	5991.636667	1899.698242	-48.374737
625.897872	5991.636667	1898.714844	-64.368973
625.897872	5991.636667	1897.732422	-39.030590
625.897872	5991.636667	1896.749023	132.153214
625.897872	5991.636667	1895.765625	21.314812
625.897872	5991.636667	1894.782227	-16.587099
625.897872	5991.636667	1893.798828	96.156204
625.897872	5991.636667	1892.814453	55.805309
625.897872	5991.636667	1891.831055	17.888960
625.897872	5991.636667	1890.846680	-163.295013
625.897872	5991.636667	1889.862305	12.475611
625.897872	5991.636667	1888.877930	-30.298473
625.897872	5991.636667	1887.892578	4.595409
625.897872	5991.636667	1886.908203	160.789597
625.897872	5991.636667	1885.922852	3.952888
625.897872	5991.636667	1884.937500	58.189388
625.897872	5991.636667	1883.952148	78.441177
625.897872	5991.636667	1882.965820	38.055622
625.897872	5991.636667	1881.980469	184.338989
625.897872	5991.636667	1880.994141	-1.505857
625.897872	5991.636667	1880.007813	-20.083763
625.897872	5991.636667	1879.021484	-7.172385
625.897872	5991.636667	1878.035156	129.264099
625.897872	5991.636667	1877.047852	-56.487595
625.897872	5991.636667	1876.061523	72.611397
625.897872	5991.636667	1875.074219	-74.353455
625.897872	5991.636667	1874.086914	-25.210526
625.897872	5991.636667	1873.098633	-36.604797
625.897872	5991.636667	1872.111328	-21.395750
625.897872	5991.636667	1871.123047	-117.494110
625.897872	5991.636667	1870.135742	37.980938
625.897872	5991.636667	1869.147461	142.595154
625.897872	5991.636667	1868.158203	63.392120
625.897872	5991.636667	1867.169922	117.159973
625.897872	5991.636667	1866.180664	-102.228981
625.897872	5991.636667	1865.192383	301.907990
625.897872	5991.636667	1864.203125	196.083771
625.897872	5991.636667	1863.213867	-28.085541
625.897872	5991.636667	1862.223633	-92.790016
625.897872	5991.636667	1861.234375	9.124909
625.897872	5991.636667	1860.244141	-135.274338
625.897872	5991.636667	1859.253906	-57.568821
625.897872	5991.636667	1858.263672	51.458912
625.897872	5991.636667	1857.273438	-150.839890
625.897872	5991.636667	1856.282227	69.093575
625.897872	5991.636667	1855.291992	95.962982
625.897872	5991.636667	1854.300781	142.092316
625.897872	5991.636667	1853.309570	41.104740
625.897872	5991.636667	1852.317383	255.924240
625.897872	5991.636667	1851.326172	7.885493
625.897872	5991.636667	1850.333984	70.770348
625.897872	5991.636667	1849.342773	107.105957
625.897872	5991.636667	1848.350586	47.050060
625.897872	5991.636667	1847.357422	157.985092
625.897872	5991.636667	1846.365234	-56.213978
625.897872	5991.636667	1845.372070	-60.909092
625.897872	5991.636667	1844.379883	271.352966
625.897872	5991.636667	1843.386719	160.657379
625.897872	5991.636667	1842.393555	254.495804
625.897872	5991.636667	1841.399414	45.159138
625.897872	5991.636667	1840.406250	59.558804
625.897872	5991.636667	1839.412109	97.972221
625.897872	5991.636667	1838.417969	57.002441
625.897872	5991.636667	1837.423828	-56.095928
625.897872	5991.636667	1836.429688	-20.168867
625.897872	5991.636667	1835.434570	-37.150200
625.897872	5991.636667	1834.440430	-44.542233
625.897872	5991.636667	1833.445313	36.913593
625.897872	5991.636667	1832.450195	72.678909
625.897872	5991.636667	1831.454102	-110.101120
625.897872	5991.636667	1830.458984	84.063637
625.897872	5991.636667	1829.462891	122.110229
625.897872	5991.636667	1828.466797	-17.471268
625.897872	5991.636667	1827.470703	154.880432
625.897872	5991.636667	1826.474609	118.434631
625.897872	5991.636667	1825.478516	91.566086
625.897872	5991.636667	1824.481445	-98.386841
625.897872	5991.636667	1823.484375	-50.946609
625.897872	5991.636667	1822.487305	37.194180
625.897872	5991.636667	1821.490234	72.544098
625.897872	5991.636667	1820.493164	59.925198
625.897872	5991.636667	1819.495117	145.500900
625.897872	5991.636667	1818.498047	111.250366
625.897872	5991.636667	1817.500000	-11.628292
625.897872	5991.636667	1816.500977	6.769910
625.897872	5991.636667	1815.502930	89.764175
625.897872	5991.636667	1814.504883	182.267883
625.897872	5991.636667	1813.505859	-50.745171
625.897872	5991.636667	1812.506836	-104.264824
625.897872	5991.636667	1811.507813	251.248779
625.897872	5991.636667	1810.508789	101.958580
625.897872	5991.636667	1809.508789	86.594109
625.897872	5991.636667	1808.508789	228.989883
625.897872	5991.636667	1807.508789	-23.100319
625.897872	5991.636667	1806.508789	-191.485260
625.897872	5991.636667	1805.508789	-73.118202
625.897872	5991.636667	1804.508789	262.561279
625.897872	5991.636667	1803.507813	127.547173
625.897872	5991.636667	1802.506836	-255.805222
625.897872	5991.636667	1801.505859	-8.731406
625.897872	5991.636667	1800.504883	-110.306679
625.897872	5991.636667	1799.502930	112.706024
625.897872	5991.636667	1798.501953	54.025551
625.897872	5991.636667	1797.500000	114.617355
625.897872	5991.636667	1796.498047	-208.885727
625.897872	5991.636667	1795.496094	-33.866623
625.897872	5991.636667	1794.493164	138.661621
625.897872	5991.636667	1793.491211	67.926018
625.897872	5991.636667	1792.488281	56.765728
625.897872	5991.636667	1791.485352	2.678035
625.897872	5991.636667	1790.482422	53.407990
625.897872	5991.636667	1789.478516	239.860352
625.897872	5991.636667	1788.475586	76.098442
625.897872	5991.636667	1787.471680	-4.297691
625.897872	5991.636667	1786.467773	-82.320786
625.897872	5991.636667	1785.463867	-15.150577
625.897872	5991.636667	1784.459961	9.117204
625.897872	5991.636667	1783.455078	11.921304
625.897872	5991.636667	1782.450195	-63.819729
625.897872	5991.636667	1781.445313	-23.022900
625.897872	5991.636667	1780.440430	-6.059320
625.897872	5991.636667	1779.435547	-43.826454
625.897872	5991.636667	1778.429688	82.406288
625.897872	5991.636667	1777.424805	68.328079
625.897872	5991.636667	1776.418945	-47.965160
625.897872	5991.636667	1775.413086	101.839943
625.897872	5991.636667	1774.406250	97.148674
625.897872	5991.636667	1773.400391	-9.699122
625.897872	5991.636667	1772.393555	47.291649
625.897872	5991.636667	1771.386719	-21.600641
625.897872	5991.636667	1770.379883	-7.429667
625.897872	5991.636667	1769.373047	18.564388
625.897872	5991.636667	1768.365234	260.419434
625.897872	5991.636667	1767.358398	105.987511
625.897872	5991.636667	1766.350586	93.878540
625.897872	5991.636667	1765.342773	233.501022
625.897872	5991.636667	1764.334961	24.515188
625.897872	5991.636667	1763.326172	24.163879
625.897872	5991.636667	1762.318359	0.078807
625.897872	5991.636667	1761.309570	-156.731979
625.897872	5991.636667	1760.300781	-266.138123
625.897872	5991.636667	1759.291016	41.332615
625.897872	5991.636667	1758.282227	-56.304951
625.897872	5991.636667	1757.272461	35.471615
625.897872	5991.636667	1756.262695	-142.692505
625.897872	5991.636667	1755.252930	114.668648
625.897872	5991.636667	1754.243164	26.404789
625.897872	5991.636667	1753.233398	-168.328659
625.897872	5991.636667	1752.222656	86.409050
625.897872	5991.636667	1751.211914	-1.913447
625.897872	5991.636667	1750.201172	94.197166
625.897872	5991.636667	1749.190430	-36.720875
625.897872	5991.636667	1748.179688	-37.623470
625.897872	5991.636667	1747.167969	13.425124
625.897872	5991.636667	1746.156250	151.839035
625.897872	5991.636667	1745.144531	25.586227
625.897872	5991.636667	1744.132813	57.589714
625.897872	5991.636667	1743.121094	25.788157
625.897872	5991.636667	1742.108398	-117.006859
625.897872	5991.636667	1741.095703	-7.207185
625.897872	5991.636667	1740.083008	178.036011
625.897872	5991.636667	1739.070313	28.109648
625.897872	5991.636667	1738.057617	118.840111
625.897872	5991.636667	1737.043945	-87.700417
625.897872	5991.636667	1736.030273	-25.356213
625.897872	5991.636667	1735.016602	133.601456
625.897872	5991.636667	1734.002930	136.877914
625.897872	5991.636667	1732.989258	-57.860622
625.897872	5991.636667	1731.974609	-38.125076
625.897872	5991.636667	1730.959961	115.862511
625.897872	5991.636667	1729.945313	192.023285
625.897872	5991.636667	1728.930664	-89.853439
625.897872	5991.636667	1727.916016	-126.771317
625.897872	5991.636667	1726.900391	45.813274
625.897872	5991.636667	1725.885742	-52.379509
625.897872	5991.636667	1724.870117	-4.665048
625.897872	5991.636667	1723.853516	-81.707222
625.897872	5991.636667	1722.837891	12.978962
625.897872	5991.636667	1721.822266	138.173416
625.897872	5991.636667	1720.805664	2.267280
625.897872	5991.636667	1719.789063	94.434387
625.897872	5991.636667	1718.772461	50.200428
625.897872	5991.636667	1717.754883	36.500416
625.897872	5991.636667	1716.738281	-5.415658
625.897872	5991.636667	1715.720703	-23.857775
625.897872	5991.636667	1714.703125	-105.739822
625.897872	5991.636667	1713.685547	-2.098602
625.897872	5991.636667	1712.667969	-37.052925
625.897872	5991.636667	1711.649414	-102.544868
625.897872	5991.636667	1710.630859	-34.259682
625.897872	5991.636667	1709.612305	94.981674
625.897872	5991.636667	1708.593750	69.303566
625.897872	5991.636667	1707.575195	-73.675514
625.897872	5991.636667	1706.555664	-19.634056
625.897872	5991.636667	1705.536133	3.878566
625.897872	5991.636667	1704.516602	-14.842373
625.897872	5991.636667	1703.497070	-155.461563
625.897872	5991.636667	1702.477539	170.285049
625.897872	5991.636667	1701.457031	-117.978432
625.897872	5991.636667	1700.437500	-68.829269
625.897872	5991.636667	1699.416992	-101.701202
625.897872	5991.636667	1698.395508	-59.658379
625.897872	5991.636667	1697.375000	54.926147
625.897872	5991.636667	1696.354492	82.836655
625.897872	5991.636667	1695.333008	89.645416
625.897872	5991.636667	1694.311523	14.536749
625.897872	5991.636667	1693.290039	105.527641
625.897872	5991.636667	1692.267578	-49.128033
625.897872	5991.636667	1691.246094	125.982079
625.897872	5991.636667	1690.223633	193.449326
625.897872	5991.636667	1689.201172	167.368271
625.897872	5991.636667	1688.178711	61.814503
625.897872	5991.636667	1687.155273	84.791855
625.897872	5991.636667	1686.132813	191.850540
625.897872	5991.636667	1685.109375	51.252655
625.897872	5991.636667	1684.085938	267.992279
625.897872	5991.636667	1683.062500	78.364754
625.897872	5991.636667	1682.039063	-36.507423
625.897872	5991.636667	1681.014648	37.692959
625.897872	5991.636667	1679.990234	188.854584
625.897872	5991.636667	1678.965820	80.969093
625.897872	5991.636667	1677.941406	176.047668
625.897872	5991.636667	1676.916992	359.696228
625.897872	5991.636667	1675.891602	209.816849
625.897872	5991.636667	1674.866211	143.905762
625.897872	5991.636667	1673.840820	217.854996
625.897872	5991.636667	1672.815430	396.627899
625.897872	5991.636667	1671.790039	384.264923
625.897872	5991.636667	1670.763672	190.188705
625.897872	5991.636667	1669.737305	61.386677
625.897872	5991.636667	1668.710938	79.322205
625.897872	5991.636667	1667.684570	337.036743
625.897872	5991.636667	1666.658203	222.211426
625.897872	5991.636667	1665.630859	156.285400
625.897872	5991.636667	1664.603516	283.496216
625.897872	5991.636667	1663.576172	226.868698
625.897872	5991.636667	1662.548828	195.836960
625.897872	5991.636667	1661.520508	378.742462
625.897872	5991.636667	1660.493164	391.850891
625.897872	5991.636667	1659.464844	267.792023
625.897872	5991.636667	1658.436523	332.024139
625.897872	5991.636667	1657.408203	173.156097
625.897872	5991.636667	1656.378906	293.118256
625.897872	5991.636667	1655.350586	445.551300
625.897872	5991.636667	1654.321289	356.396576
625.897872	5991.636667	1653.291992	420.510773
625.897872	5991.636667	1652.261719	403.341797
625.897872	5991.636667	1651.232422	212.110519
625.897872	5991.636667	1650.202148	269.235718
625.897872	5991.636667	1649.171875	324.014557
625.897872	5991.636667	1648.141602	432.119446
625.897872	5991.636667	1647.111328	375.521515
625.897872	5991.636667	1646.080078	465.014435
625.897872	5991.636667	1645.049805	647.206726
625.897872	5991.636667	1644.018555	595.224182
625.897872	5991.636667	1642.987305	605.829895
625.897872	5991.636667	1641.955078	424.123108
625.897872	5991.636667	1640.923828	444.022919
625.897872	5991.636667	1639.891602	547.287048
625.897872	5991.636667	1638.859375	530.103210
625.897872	5991.636667	1637.827148	554.598938
625.897872	5991.636667	1636.794922	470.299072
625.897872	5991.636667	1635.761719	392.971924
625.897872	5991.636667	1634.729492	625.726990
625.897872	5991.636667	1633.696289	608.551453
625.897872	5991.636667	1632.662109	468.801270
625.897872	5991.636667	1631.628906	638.977539
625.897872	5991.636667	1630.594727	501.596741
625.897872	5991.636667	1629.561523	463.675598
625.897872	5991.636667	1628.527344	571.366394
625.897872	5991.636667	1627.493164	685.953613
625.897872	5991.636667	1626.458008	611.064941
625.897872	5991.636667	1625.423828	720.995239
625.897872	5991.636667	1624.388672	699.258240
625.897872	5991.636667	1623.353516	709.861023
625.897872	5991.636667	1622.318359	868.204529
625.897872	5991.636667	1621.282227	920.326599
625.897872	5991.636667	1620.247070	829.380432
625.897872	5991.636667	1619.210938	863.053650
625.897872	5991.636667	1618.174805	917.484253
625.897872	5991.636667	1617.137695	895.797974
625.897872	5991.636667	1616.101563	977.893005
625.897872	5991.636667	1615.064453	970.059753
625.897872	5991.636667	1614.027344	976.070740
625.897872	5991.636667	1612.990234	1065.049561
625.897872	5991.636667	1611.953125	1128.664551
625.897872	5991.636667	1610.916016	904.340027
625.897872	5991.636667	1609.877930	986.410034
625.897872	5991.636667	1608.839844	1158.262329
625.897872	5991.636667	1607.801758	1118.271362
625.897872	5991.636667	1606.763672	1073.710083
625.897872	5991.636667	1605.724609	1250.091187
625.897872	5991.636667	1604.685547	1129.625732
625.897872	5991.636667	1603.646484	1119.640137
625.897872	5991.636667	1602.607422	1197.069702
625.897872	5991.636667	1601.568359	1081.340454
625.897872	5991.636667	1600.528320	823.135315
625.897872	5991.636667	1599.489258	983.382141
625.897872	5991.636667	1598.449219	1014.891296
625.897872	5991.636667	1597.408203	986.666260
625.897872	5991.636667	1596.368164	1066.445313
625.897872	5991.636667	1595.327148	1029.078125
625.897872	5991.636667	1594.287109	828.718811
625.897872	5991.636667	1593.246094	869.515015
625.897872	5991.636667	1592.204102	999.833374
625.897872	5991.636667	1591.163086	1107.179565
625.897872	5991.636667	1590.121094	780.850708
625.897872	5991.636667	1589.079102	768.953796
625.897872	5991.636667	1588.037109	938.278381
625.897872	5991.636667	1586.995117	628.302429
625.897872	5991.636667	1585.953125	770.127930
625.897872	5991.636667	1584.910156	845.445862
625.897872	5991.636667	1583.867188	1007.848450
625.897872	5991.636667	1582.824219	963.996277
625.897872	5991.636667	1581.781250	755.247253
625.897872	5991.636667	1580.737305	956.588257
625.897872	5991.636667	1579.693359	773.165100
625.897872	5991.636667	1578.649414	798.189270
625.897872	5991.636667	1577.605469	917.085876
625.897872	5991.636667	1576.561523	768.197205
625.897872	5991.636667	1575.516602	825.328674
625.897872	5991.636667	1574.472656	669.715515
625.897872	5991.636667	1573.427734	811.536438
625.897872	5991.636667	1572.381836	676.622192
625.897872	5991.636667	1571.336914	733.855042
625.897872	5991.636667	1570.291016	695.084961
625.897872	5991.636667	1569.246094	738.645447
625.897872	5991.636667	1568.200195	688.531067
625.897872	5991.636667	1567.153320	800.672974
625.897872	5991.636667	1566.107422	746.067505
625.897872	5991.636667	1565.060547	689.230896
625.897872	5991.636667	1564.013672	703.232361
625.897872	5991.636667	1562.966797	680.740173
