#X		#Y		#Wave		#Intensity
237.870745	6126.295000	1999.946289	37.268101
237.870745	6126.295000	1998.981445	-25.613096
237.870745	6126.295000	1998.017578	72.217094
237.870745	6126.295000	1997.052734	-18.340504
237.870745	6126.295000	1996.088867	-4.815421
237.870745	6126.295000	1995.124023	-30.943893
237.870745	6126.295000	1994.159180	2.367594
237.870745	6126.295000	1993.193359	60.417137
237.870745	6126.295000	1992.228516	98.629807
237.870745	6126.295000	1991.262695	62.556808
237.870745	6126.295000	1990.296875	38.863155
237.870745	6126.295000	1989.331055	32.490936
237.870745	6126.295000	1988.365234	63.223518
237.870745	6126.295000	1987.398438	-5.004200
237.870745	6126.295000	1986.432617	-28.696594
237.870745	6126.295000	1985.465820	-0.462330
237.870745	6126.295000	1984.499023	-26.630585
237.870745	6126.295000	1983.532227	13.941789
237.870745	6126.295000	1982.565430	94.034645
237.870745	6126.295000	1981.597656	8.551996
237.870745	6126.295000	1980.629883	-118.896904
237.870745	6126.295000	1979.662109	-31.424101
237.870745	6126.295000	1978.694336	36.259235
237.870745	6126.295000	1977.726563	69.351089
237.870745	6126.295000	1976.758789	20.969841
237.870745	6126.295000	1975.790039	71.325806
237.870745	6126.295000	1974.821289	0.752774
237.870745	6126.295000	1973.852539	21.488949
237.870745	6126.295000	1972.883789	-29.314623
237.870745	6126.295000	1971.915039	13.617108
237.870745	6126.295000	1970.945313	44.204597
237.870745	6126.295000	1969.975586	77.247871
237.870745	6126.295000	1969.005859	33.872028
237.870745	6126.295000	1968.036133	74.302765
237.870745	6126.295000	1967.066406	65.443718
237.870745	6126.295000	1966.096680	66.445114
237.870745	6126.295000	1965.125977	25.577694
237.870745	6126.295000	1964.155273	-5.420382
237.870745	6126.295000	1963.184570	-19.168459
237.870745	6126.295000	1962.213867	85.249992
237.870745	6126.295000	1961.242188	24.736540
237.870745	6126.295000	1960.271484	106.971481
237.870745	6126.295000	1959.299805	41.566029
237.870745	6126.295000	1958.328125	-36.108685
237.870745	6126.295000	1957.356445	33.810349
237.870745	6126.295000	1956.384766	76.661713
237.870745	6126.295000	1955.412109	33.458038
237.870745	6126.295000	1954.439453	51.725174
237.870745	6126.295000	1953.467773	6.098306
237.870745	6126.295000	1952.495117	19.462845
237.870745	6126.295000	1951.521484	-11.390256
237.870745	6126.295000	1950.548828	56.020573
237.870745	6126.295000	1949.575195	27.641794
237.870745	6126.295000	1948.601563	31.198380
237.870745	6126.295000	1947.627930	-58.519508
237.870745	6126.295000	1946.654297	-3.393598
237.870745	6126.295000	1945.680664	49.265675
237.870745	6126.295000	1944.706055	-33.023705
237.870745	6126.295000	1943.732422	9.824890
237.870745	6126.295000	1942.757813	148.310715
237.870745	6126.295000	1941.783203	-36.911930
237.870745	6126.295000	1940.807617	47.611717
237.870745	6126.295000	1939.833008	129.661789
237.870745	6126.295000	1938.857422	-43.177711
237.870745	6126.295000	1937.881836	-29.731056
237.870745	6126.295000	1936.906250	-18.730873
237.870745	6126.295000	1935.930664	87.795036
237.870745	6126.295000	1934.955078	57.155785
237.870745	6126.295000	1933.978516	46.122299
237.870745	6126.295000	1933.001953	-53.023079
237.870745	6126.295000	1932.025391	21.645197
237.870745	6126.295000	1931.048828	10.649341
237.870745	6126.295000	1930.072266	-27.245758
237.870745	6126.295000	1929.094727	44.953995
237.870745	6126.295000	1928.118164	-44.274776
237.870745	6126.295000	1927.140625	-20.985371
237.870745	6126.295000	1926.163086	112.315376
237.870745	6126.295000	1925.184570	-79.511475
237.870745	6126.295000	1924.207031	17.109976
237.870745	6126.295000	1923.228516	-8.464108
237.870745	6126.295000	1922.250000	2.622921
237.870745	6126.295000	1921.271484	-98.638023
237.870745	6126.295000	1920.292969	61.438068
237.870745	6126.295000	1919.314453	-44.663025
237.870745	6126.295000	1918.334961	51.890965
237.870745	6126.295000	1917.355469	4.420976
237.870745	6126.295000	1916.375977	113.146179
237.870745	6126.295000	1915.396484	31.542078
237.870745	6126.295000	1914.416992	-23.192181
237.870745	6126.295000	1913.436523	-48.633488
237.870745	6126.295000	1912.457031	-0.907357
237.870745	6126.295000	1911.476563	-33.642097
237.870745	6126.295000	1910.496094	-32.233398
237.870745	6126.295000	1909.515625	-6.448210
237.870745	6126.295000	1908.534180	51.008430
237.870745	6126.295000	1907.552734	45.113358
237.870745	6126.295000	1906.572266	10.000587
237.870745	6126.295000	1905.590820	1.693990
237.870745	6126.295000	1904.608398	-60.166630
237.870745	6126.295000	1903.626953	14.320397
237.870745	6126.295000	1902.644531	100.954361
237.870745	6126.295000	1901.663086	29.396906
237.870745	6126.295000	1900.680664	64.918053
237.870745	6126.295000	1899.698242	-35.783039
237.870745	6126.295000	1898.714844	60.548111
237.870745	6126.295000	1897.732422	49.863125
237.870745	6126.295000	1896.749023	17.308041
237.870745	6126.295000	1895.765625	47.966507
237.870745	6126.295000	1894.782227	-55.038799
237.870745	6126.295000	1893.798828	12.078121
237.870745	6126.295000	1892.814453	47.594715
237.870745	6126.295000	1891.831055	36.956669
237.870745	6126.295000	1890.846680	-17.382547
237.870745	6126.295000	1889.862305	47.269314
237.870745	6126.295000	1888.877930	14.804941
237.870745	6126.295000	1887.892578	18.761564
237.870745	6126.295000	1886.908203	49.413177
237.870745	6126.295000	1885.922852	-53.375813
237.870745	6126.295000	1884.937500	-20.288429
237.870745	6126.295000	1883.952148	112.221565
237.870745	6126.295000	1882.965820	-36.578594
237.870745	6126.295000	1881.980469	66.801834
237.870745	6126.295000	1880.994141	63.500244
237.870745	6126.295000	1880.007813	-7.649814
237.870745	6126.295000	1879.021484	-1.237598
237.870745	6126.295000	1878.035156	-45.695629
237.870745	6126.295000	1877.047852	26.120298
237.870745	6126.295000	1876.061523	30.110056
237.870745	6126.295000	1875.074219	-31.267633
237.870745	6126.295000	1874.086914	86.505089
237.870745	6126.295000	1873.098633	136.471603
237.870745	6126.295000	1872.111328	58.177990
237.870745	6126.295000	1871.123047	-51.534668
237.870745	6126.295000	1870.135742	-40.264095
237.870745	6126.295000	1869.147461	31.462139
237.870745	6126.295000	1868.158203	-29.820713
237.870745	6126.295000	1867.169922	-4.050956
237.870745	6126.295000	1866.180664	70.049759
237.870745	6126.295000	1865.192383	-99.944679
237.870745	6126.295000	1864.203125	46.630798
237.870745	6126.295000	1863.213867	31.305996
237.870745	6126.295000	1862.223633	42.554245
237.870745	6126.295000	1861.234375	56.214317
237.870745	6126.295000	1860.244141	-21.872669
237.870745	6126.295000	1859.253906	44.898754
237.870745	6126.295000	1858.263672	-4.195677
237.870745	6126.295000	1857.273438	36.005756
237.870745	6126.295000	1856.282227	-49.255283
237.870745	6126.295000	1855.291992	-4.236714
237.870745	6126.295000	1854.300781	33.530033
237.870745	6126.295000	1853.309570	-3.461629
237.870745	6126.295000	1852.317383	36.699879
237.870745	6126.295000	1851.326172	2.130674
237.870745	6126.295000	1850.333984	44.684334
237.870745	6126.295000	1849.342773	-11.558911
237.870745	6126.295000	1848.350586	98.426392
237.870745	6126.295000	1847.357422	37.374477
237.870745	6126.295000	1846.365234	-6.799937
237.870745	6126.295000	1845.372070	-12.440302
237.870745	6126.295000	1844.379883	13.211365
237.870745	6126.295000	1843.386719	137.520111
237.870745	6126.295000	1842.393555	98.165146
237.870745	6126.295000	1841.399414	-95.139198
237.870745	6126.295000	1840.406250	-11.774581
237.870745	6126.295000	1839.412109	105.222427
237.870745	6126.295000	1838.417969	29.829636
237.870745	6126.295000	1837.423828	69.846977
237.870745	6126.295000	1836.429688	16.114416
237.870745	6126.295000	1835.434570	-35.198170
237.870745	6126.295000	1834.440430	-40.846661
237.870745	6126.295000	1833.445313	1.544207
237.870745	6126.295000	1832.450195	29.506475
237.870745	6126.295000	1831.454102	28.641169
237.870745	6126.295000	1830.458984	-27.442335
237.870745	6126.295000	1829.462891	31.702017
237.870745	6126.295000	1828.466797	-48.366127
237.870745	6126.295000	1827.470703	65.937103
237.870745	6126.295000	1826.474609	127.418243
237.870745	6126.295000	1825.478516	-10.195997
237.870745	6126.295000	1824.481445	-6.282887
237.870745	6126.295000	1823.484375	100.717239
237.870745	6126.295000	1822.487305	37.482025
237.870745	6126.295000	1821.490234	41.370983
237.870745	6126.295000	1820.493164	6.915760
237.870745	6126.295000	1819.495117	37.152657
237.870745	6126.295000	1818.498047	-47.598156
237.870745	6126.295000	1817.500000	87.999214
237.870745	6126.295000	1816.500977	48.753002
237.870745	6126.295000	1815.502930	81.334015
237.870745	6126.295000	1814.504883	63.635471
237.870745	6126.295000	1813.505859	-35.423519
237.870745	6126.295000	1812.506836	102.410622
237.870745	6126.295000	1811.507813	75.133904
237.870745	6126.295000	1810.508789	38.295559
237.870745	6126.295000	1809.508789	-10.490740
237.870745	6126.295000	1808.508789	65.053757
237.870745	6126.295000	1807.508789	42.563007
237.870745	6126.295000	1806.508789	36.803783
237.870745	6126.295000	1805.508789	109.890282
237.870745	6126.295000	1804.508789	123.220367
237.870745	6126.295000	1803.507813	12.338608
237.870745	6126.295000	1802.506836	68.654160
237.870745	6126.295000	1801.505859	84.353973
237.870745	6126.295000	1800.504883	116.751221
237.870745	6126.295000	1799.502930	-3.616639
237.870745	6126.295000	1798.501953	0.138429
237.870745	6126.295000	1797.500000	39.671478
237.870745	6126.295000	1796.498047	7.624136
237.870745	6126.295000	1795.496094	82.901138
237.870745	6126.295000	1794.493164	62.766483
237.870745	6126.295000	1793.491211	66.473022
237.870745	6126.295000	1792.488281	27.268044
237.870745	6126.295000	1791.485352	100.074707
237.870745	6126.295000	1790.482422	68.012848
237.870745	6126.295000	1789.478516	119.331055
237.870745	6126.295000	1788.475586	13.431674
237.870745	6126.295000	1787.471680	0.433761
237.870745	6126.295000	1786.467773	-74.466782
237.870745	6126.295000	1785.463867	83.928024
237.870745	6126.295000	1784.459961	168.479218
237.870745	6126.295000	1783.455078	-27.783133
237.870745	6126.295000	1782.450195	23.436768
237.870745	6126.295000	1781.445313	65.116188
237.870745	6126.295000	1780.440430	97.260475
237.870745	6126.295000	1779.435547	-60.825222
237.870745	6126.295000	1778.429688	25.991196
237.870745	6126.295000	1777.424805	20.075842
237.870745	6126.295000	1776.418945	-54.757271
237.870745	6126.295000	1775.413086	146.027451
237.870745	6126.295000	1774.406250	85.436104
237.870745	6126.295000	1773.400391	17.736727
237.870745	6126.295000	1772.393555	11.791373
237.870745	6126.295000	1771.386719	69.940117
237.870745	6126.295000	1770.379883	-30.970129
237.870745	6126.295000	1769.373047	-29.804842
237.870745	6126.295000	1768.365234	18.805573
237.870745	6126.295000	1767.358398	-10.892498
237.870745	6126.295000	1766.350586	47.168507
237.870745	6126.295000	1765.342773	3.233497
237.870745	6126.295000	1764.334961	9.096173
237.870745	6126.295000	1763.326172	-46.682487
237.870745	6126.295000	1762.318359	96.631531
237.870745	6126.295000	1761.309570	-4.177962
237.870745	6126.295000	1760.300781	134.320023
237.870745	6126.295000	1759.291016	33.526756
237.870745	6126.295000	1758.282227	15.651178
237.870745	6126.295000	1757.272461	130.366699
237.870745	6126.295000	1756.262695	20.141209
237.870745	6126.295000	1755.252930	77.994240
237.870745	6126.295000	1754.243164	79.025436
237.870745	6126.295000	1753.233398	-61.905819
237.870745	6126.295000	1752.222656	29.024099
237.870745	6126.295000	1751.211914	8.756500
237.870745	6126.295000	1750.201172	19.229153
237.870745	6126.295000	1749.190430	105.342232
237.870745	6126.295000	1748.179688	-47.314392
237.870745	6126.295000	1747.167969	-10.863657
237.870745	6126.295000	1746.156250	82.272263
237.870745	6126.295000	1745.144531	-27.792837
237.870745	6126.295000	1744.132813	-66.967117
237.870745	6126.295000	1743.121094	21.382750
237.870745	6126.295000	1742.108398	-5.995830
237.870745	6126.295000	1741.095703	9.118558
237.870745	6126.295000	1740.083008	-4.100708
237.870745	6126.295000	1739.070313	-3.163595
237.870745	6126.295000	1738.057617	-9.311274
237.870745	6126.295000	1737.043945	24.633810
237.870745	6126.295000	1736.030273	-19.263142
237.870745	6126.295000	1735.016602	42.951530
237.870745	6126.295000	1734.002930	-69.308800
237.870745	6126.295000	1732.989258	32.946159
237.870745	6126.295000	1731.974609	76.242813
237.870745	6126.295000	1730.959961	-5.351659
237.870745	6126.295000	1729.945313	26.145472
237.870745	6126.295000	1728.930664	29.362921
237.870745	6126.295000	1727.916016	46.700890
237.870745	6126.295000	1726.900391	-11.309847
237.870745	6126.295000	1725.885742	10.724401
237.870745	6126.295000	1724.870117	-23.736189
237.870745	6126.295000	1723.853516	-29.956465
237.870745	6126.295000	1722.837891	29.688007
237.870745	6126.295000	1721.822266	63.432098
237.870745	6126.295000	1720.805664	-13.364327
237.870745	6126.295000	1719.789063	39.170918
237.870745	6126.295000	1718.772461	35.265926
237.870745	6126.295000	1717.754883	80.708771
237.870745	6126.295000	1716.738281	109.681808
237.870745	6126.295000	1715.720703	-44.605110
237.870745	6126.295000	1714.703125	-41.468235
237.870745	6126.295000	1713.685547	-54.776390
237.870745	6126.295000	1712.667969	30.527136
237.870745	6126.295000	1711.649414	3.113686
237.870745	6126.295000	1710.630859	-31.335411
237.870745	6126.295000	1709.612305	-21.191906
237.870745	6126.295000	1708.593750	-13.403725
237.870745	6126.295000	1707.575195	74.129066
237.870745	6126.295000	1706.555664	-2.542333
237.870745	6126.295000	1705.536133	47.427505
237.870745	6126.295000	1704.516602	-76.105141
237.870745	6126.295000	1703.497070	-35.525211
237.870745	6126.295000	1702.477539	40.185692
237.870745	6126.295000	1701.457031	29.172510
237.870745	6126.295000	1700.437500	29.872395
237.870745	6126.295000	1699.416992	-30.326698
237.870745	6126.295000	1698.395508	96.820419
237.870745	6126.295000	1697.375000	81.104675
237.870745	6126.295000	1696.354492	91.138794
237.870745	6126.295000	1695.333008	164.350662
237.870745	6126.295000	1694.311523	71.404099
237.870745	6126.295000	1693.290039	29.954954
237.870745	6126.295000	1692.267578	-6.805219
237.870745	6126.295000	1691.246094	31.276861
237.870745	6126.295000	1690.223633	-14.829120
237.870745	6126.295000	1689.201172	-70.271080
237.870745	6126.295000	1688.178711	-8.839714
237.870745	6126.295000	1687.155273	85.276642
237.870745	6126.295000	1686.132813	-16.887100
237.870745	6126.295000	1685.109375	-51.279015
237.870745	6126.295000	1684.085938	31.104853
237.870745	6126.295000	1683.062500	38.738468
237.870745	6126.295000	1682.039063	69.710052
237.870745	6126.295000	1681.014648	28.312702
237.870745	6126.295000	1679.990234	28.931723
237.870745	6126.295000	1678.965820	27.214909
237.870745	6126.295000	1677.941406	55.820068
237.870745	6126.295000	1676.916992	128.722641
237.870745	6126.295000	1675.891602	-19.919563
237.870745	6126.295000	1674.866211	-68.262466
237.870745	6126.295000	1673.840820	-62.980053
237.870745	6126.295000	1672.815430	56.486118
237.870745	6126.295000	1671.790039	-64.077728
237.870745	6126.295000	1670.763672	-82.101410
237.870745	6126.295000	1669.737305	55.924416
237.870745	6126.295000	1668.710938	26.237885
237.870745	6126.295000	1667.684570	15.186014
237.870745	6126.295000	1666.658203	27.413673
237.870745	6126.295000	1665.630859	-37.164730
237.870745	6126.295000	1664.603516	47.194054
237.870745	6126.295000	1663.576172	17.528936
237.870745	6126.295000	1662.548828	39.043133
237.870745	6126.295000	1661.520508	4.736505
237.870745	6126.295000	1660.493164	16.942623
237.870745	6126.295000	1659.464844	101.202370
237.870745	6126.295000	1658.436523	6.474573
237.870745	6126.295000	1657.408203	-92.864944
237.870745	6126.295000	1656.378906	-55.100014
237.870745	6126.295000	1655.350586	26.782871
237.870745	6126.295000	1654.321289	-7.482051
237.870745	6126.295000	1653.291992	23.277182
237.870745	6126.295000	1652.261719	-4.011352
237.870745	6126.295000	1651.232422	-10.400308
237.870745	6126.295000	1650.202148	129.402908
237.870745	6126.295000	1649.171875	-37.093327
237.870745	6126.295000	1648.141602	-8.679681
237.870745	6126.295000	1647.111328	70.744278
237.870745	6126.295000	1646.080078	50.432796
237.870745	6126.295000	1645.049805	-55.644321
237.870745	6126.295000	1644.018555	-20.295551
237.870745	6126.295000	1642.987305	52.117367
237.870745	6126.295000	1641.955078	15.607482
237.870745	6126.295000	1640.923828	48.606983
237.870745	6126.295000	1639.891602	39.905548
237.870745	6126.295000	1638.859375	96.043533
237.870745	6126.295000	1637.827148	13.254667
237.870745	6126.295000	1636.794922	48.546127
237.870745	6126.295000	1635.761719	42.168274
237.870745	6126.295000	1634.729492	49.678028
237.870745	6126.295000	1633.696289	68.751312
237.870745	6126.295000	1632.662109	34.621628
237.870745	6126.295000	1631.628906	56.005791
237.870745	6126.295000	1630.594727	70.446198
237.870745	6126.295000	1629.561523	34.030506
237.870745	6126.295000	1628.527344	78.516693
237.870745	6126.295000	1627.493164	-73.414276
237.870745	6126.295000	1626.458008	-5.820140
237.870745	6126.295000	1625.423828	59.440952
237.870745	6126.295000	1624.388672	-0.022427
237.870745	6126.295000	1623.353516	25.965790
237.870745	6126.295000	1622.318359	107.346855
237.870745	6126.295000	1621.282227	29.451221
237.870745	6126.295000	1620.247070	13.891173
237.870745	6126.295000	1619.210938	129.838547
237.870745	6126.295000	1618.174805	31.232317
237.870745	6126.295000	1617.137695	103.319237
237.870745	6126.295000	1616.101563	78.543816
237.870745	6126.295000	1615.064453	-47.650108
237.870745	6126.295000	1614.027344	70.514084
237.870745	6126.295000	1612.990234	-39.492832
237.870745	6126.295000	1611.953125	62.502819
237.870745	6126.295000	1610.916016	5.525522
237.870745	6126.295000	1609.877930	-42.215561
237.870745	6126.295000	1608.839844	36.704609
237.870745	6126.295000	1607.801758	-8.715117
237.870745	6126.295000	1606.763672	90.889351
237.870745	6126.295000	1605.724609	61.591209
237.870745	6126.295000	1604.685547	-43.616177
237.870745	6126.295000	1603.646484	0.739933
237.870745	6126.295000	1602.607422	-19.312805
237.870745	6126.295000	1601.568359	64.118752
237.870745	6126.295000	1600.528320	25.676651
237.870745	6126.295000	1599.489258	33.224720
237.870745	6126.295000	1598.449219	91.329948
237.870745	6126.295000	1597.408203	46.023422
237.870745	6126.295000	1596.368164	-10.745609
237.870745	6126.295000	1595.327148	-23.851780
237.870745	6126.295000	1594.287109	54.902664
237.870745	6126.295000	1593.246094	112.967575
237.870745	6126.295000	1592.204102	51.655045
237.870745	6126.295000	1591.163086	77.578323
237.870745	6126.295000	1590.121094	36.956093
237.870745	6126.295000	1589.079102	33.058498
237.870745	6126.295000	1588.037109	192.010132
237.870745	6126.295000	1586.995117	117.007080
237.870745	6126.295000	1585.953125	42.038425
237.870745	6126.295000	1584.910156	74.837112
237.870745	6126.295000	1583.867188	137.421066
237.870745	6126.295000	1582.824219	16.680227
237.870745	6126.295000	1581.781250	65.516281
237.870745	6126.295000	1580.737305	73.109924
237.870745	6126.295000	1579.693359	53.226379
237.870745	6126.295000	1578.649414	28.776834
237.870745	6126.295000	1577.605469	89.038208
237.870745	6126.295000	1576.561523	9.675090
237.870745	6126.295000	1575.516602	95.096985
237.870745	6126.295000	1574.472656	15.775107
237.870745	6126.295000	1573.427734	73.725906
237.870745	6126.295000	1572.381836	209.411346
237.870745	6126.295000	1571.336914	95.834381
237.870745	6126.295000	1570.291016	-1.691661
237.870745	6126.295000	1569.246094	69.953552
237.870745	6126.295000	1568.200195	54.744286
237.870745	6126.295000	1567.153320	80.668640
237.870745	6126.295000	1566.107422	111.158180
237.870745	6126.295000	1565.060547	-11.366748
237.870745	6126.295000	1564.013672	99.054039
237.870745	6126.295000	1562.966797	115.842705
237.870745	6126.295000	1561.919922	48.184353
237.870745	6126.295000	1560.872070	39.887226
237.870745	6126.295000	1559.825195	106.888672
237.870745	6126.295000	1558.777344	21.041960
237.870745	6126.295000	1557.729492	90.313339
