#X		#Y		#Wave		#Intensity
649.998936	6047.948333	1999.946289	-165.092575
649.998936	6047.948333	1998.981445	54.993149
649.998936	6047.948333	1998.017578	57.999092
649.998936	6047.948333	1997.052734	137.811951
649.998936	6047.948333	1996.088867	-2.925938
649.998936	6047.948333	1995.124023	-64.352882
649.998936	6047.948333	1994.159180	12.930643
649.998936	6047.948333	1993.193359	-21.255175
649.998936	6047.948333	1992.228516	-10.871045
649.998936	6047.948333	1991.262695	51.485046
649.998936	6047.948333	1990.296875	-39.631680
649.998936	6047.948333	1989.331055	44.966167
649.998936	6047.948333	1988.365234	174.060181
649.998936	6047.948333	1987.398438	48.329739
649.998936	6047.948333	1986.432617	-13.056108
649.998936	6047.948333	1985.465820	22.010504
649.998936	6047.948333	1984.499023	-51.711231
649.998936	6047.948333	1983.532227	27.838474
649.998936	6047.948333	1982.565430	-60.683937
649.998936	6047.948333	1981.597656	107.786980
649.998936	6047.948333	1980.629883	81.042542
649.998936	6047.948333	1979.662109	-79.061668
649.998936	6047.948333	1978.694336	-78.592430
649.998936	6047.948333	1977.726563	99.643181
649.998936	6047.948333	1976.758789	-62.832798
649.998936	6047.948333	1975.790039	-104.311493
649.998936	6047.948333	1974.821289	-61.872826
649.998936	6047.948333	1973.852539	-12.042700
649.998936	6047.948333	1972.883789	45.174454
649.998936	6047.948333	1971.915039	-15.999249
649.998936	6047.948333	1970.945313	65.867653
649.998936	6047.948333	1969.975586	91.010513
649.998936	6047.948333	1969.005859	22.488800
649.998936	6047.948333	1968.036133	-85.429085
649.998936	6047.948333	1967.066406	80.194206
649.998936	6047.948333	1966.096680	36.372162
649.998936	6047.948333	1965.125977	78.778854
649.998936	6047.948333	1964.155273	76.854080
649.998936	6047.948333	1963.184570	-1.384334
649.998936	6047.948333	1962.213867	-163.278442
649.998936	6047.948333	1961.242188	-24.843157
649.998936	6047.948333	1960.271484	111.091164
649.998936	6047.948333	1959.299805	-45.783394
649.998936	6047.948333	1958.328125	-57.461777
649.998936	6047.948333	1957.356445	12.031748
649.998936	6047.948333	1956.384766	101.181686
649.998936	6047.948333	1955.412109	-30.947313
649.998936	6047.948333	1954.439453	77.862572
649.998936	6047.948333	1953.467773	105.546394
649.998936	6047.948333	1952.495117	-82.987892
649.998936	6047.948333	1951.521484	72.479546
649.998936	6047.948333	1950.548828	144.392365
649.998936	6047.948333	1949.575195	29.659534
649.998936	6047.948333	1948.601563	-6.452450
649.998936	6047.948333	1947.627930	-135.820053
649.998936	6047.948333	1946.654297	14.661209
649.998936	6047.948333	1945.680664	123.382416
649.998936	6047.948333	1944.706055	-8.356466
649.998936	6047.948333	1943.732422	-51.729214
649.998936	6047.948333	1942.757813	-131.862442
649.998936	6047.948333	1941.783203	-138.394119
649.998936	6047.948333	1940.807617	-54.204933
649.998936	6047.948333	1939.833008	78.986252
649.998936	6047.948333	1938.857422	35.692532
649.998936	6047.948333	1937.881836	-27.175823
649.998936	6047.948333	1936.906250	44.724812
649.998936	6047.948333	1935.930664	57.826408
649.998936	6047.948333	1934.955078	-24.569420
649.998936	6047.948333	1933.978516	47.321659
649.998936	6047.948333	1933.001953	13.936176
649.998936	6047.948333	1932.025391	63.786648
649.998936	6047.948333	1931.048828	120.968575
649.998936	6047.948333	1930.072266	234.409500
649.998936	6047.948333	1929.094727	-9.309872
649.998936	6047.948333	1928.118164	99.240181
649.998936	6047.948333	1927.140625	63.493286
649.998936	6047.948333	1926.163086	59.550392
649.998936	6047.948333	1925.184570	-61.707481
649.998936	6047.948333	1924.207031	24.811377
649.998936	6047.948333	1923.228516	99.088486
649.998936	6047.948333	1922.250000	53.644642
649.998936	6047.948333	1921.271484	-23.526768
649.998936	6047.948333	1920.292969	18.994862
649.998936	6047.948333	1919.314453	-11.738514
649.998936	6047.948333	1918.334961	150.389969
649.998936	6047.948333	1917.355469	-51.185875
649.998936	6047.948333	1916.375977	86.499954
649.998936	6047.948333	1915.396484	104.595078
649.998936	6047.948333	1914.416992	-57.814880
649.998936	6047.948333	1913.436523	118.831764
649.998936	6047.948333	1912.457031	-77.647949
649.998936	6047.948333	1911.476563	-3.445259
649.998936	6047.948333	1910.496094	-99.886208
649.998936	6047.948333	1909.515625	91.274963
649.998936	6047.948333	1908.534180	50.898743
649.998936	6047.948333	1907.552734	71.442284
649.998936	6047.948333	1906.572266	45.704021
649.998936	6047.948333	1905.590820	29.718307
649.998936	6047.948333	1904.608398	-13.041103
649.998936	6047.948333	1903.626953	78.099174
649.998936	6047.948333	1902.644531	8.577308
649.998936	6047.948333	1901.663086	4.781999
649.998936	6047.948333	1900.680664	-130.387161
649.998936	6047.948333	1899.698242	-27.128361
649.998936	6047.948333	1898.714844	-116.034233
649.998936	6047.948333	1897.732422	6.633024
649.998936	6047.948333	1896.749023	10.131879
649.998936	6047.948333	1895.765625	-71.442894
649.998936	6047.948333	1894.782227	189.660248
649.998936	6047.948333	1893.798828	-139.750992
649.998936	6047.948333	1892.814453	-12.345942
649.998936	6047.948333	1891.831055	-6.430734
649.998936	6047.948333	1890.846680	-168.076050
649.998936	6047.948333	1889.862305	-79.594810
649.998936	6047.948333	1888.877930	37.978367
649.998936	6047.948333	1887.892578	-164.856918
649.998936	6047.948333	1886.908203	30.325155
649.998936	6047.948333	1885.922852	128.386978
649.998936	6047.948333	1884.937500	-45.262207
649.998936	6047.948333	1883.952148	86.715546
649.998936	6047.948333	1882.965820	39.209450
649.998936	6047.948333	1881.980469	122.622437
649.998936	6047.948333	1880.994141	77.535080
649.998936	6047.948333	1880.007813	44.573452
649.998936	6047.948333	1879.021484	171.524719
649.998936	6047.948333	1878.035156	-130.349823
649.998936	6047.948333	1877.047852	-15.542370
649.998936	6047.948333	1876.061523	-70.293930
649.998936	6047.948333	1875.074219	213.912491
649.998936	6047.948333	1874.086914	-22.428823
649.998936	6047.948333	1873.098633	-26.358942
649.998936	6047.948333	1872.111328	-42.397594
649.998936	6047.948333	1871.123047	125.420364
649.998936	6047.948333	1870.135742	22.257395
649.998936	6047.948333	1869.147461	-107.481956
649.998936	6047.948333	1868.158203	-200.918243
649.998936	6047.948333	1867.169922	-38.085258
649.998936	6047.948333	1866.180664	27.992796
649.998936	6047.948333	1865.192383	-5.046411
649.998936	6047.948333	1864.203125	114.123436
649.998936	6047.948333	1863.213867	-80.797195
649.998936	6047.948333	1862.223633	11.743280
649.998936	6047.948333	1861.234375	48.694668
649.998936	6047.948333	1860.244141	-32.684216
649.998936	6047.948333	1859.253906	6.640178
649.998936	6047.948333	1858.263672	149.706512
649.998936	6047.948333	1857.273438	17.630112
649.998936	6047.948333	1856.282227	-61.342232
649.998936	6047.948333	1855.291992	4.416271
649.998936	6047.948333	1854.300781	-144.496887
649.998936	6047.948333	1853.309570	-6.454797
649.998936	6047.948333	1852.317383	35.089584
649.998936	6047.948333	1851.326172	69.367203
649.998936	6047.948333	1850.333984	110.839661
649.998936	6047.948333	1849.342773	-18.783007
649.998936	6047.948333	1848.350586	-13.485555
649.998936	6047.948333	1847.357422	35.137829
649.998936	6047.948333	1846.365234	11.483355
649.998936	6047.948333	1845.372070	57.630596
649.998936	6047.948333	1844.379883	96.516380
649.998936	6047.948333	1843.386719	-11.436530
649.998936	6047.948333	1842.393555	-54.408573
649.998936	6047.948333	1841.399414	107.090919
649.998936	6047.948333	1840.406250	-137.973190
649.998936	6047.948333	1839.412109	-19.854607
649.998936	6047.948333	1838.417969	-29.233633
649.998936	6047.948333	1837.423828	-115.557884
649.998936	6047.948333	1836.429688	-129.774460
649.998936	6047.948333	1835.434570	77.056870
649.998936	6047.948333	1834.440430	206.904709
649.998936	6047.948333	1833.445313	223.779755
649.998936	6047.948333	1832.450195	79.714714
649.998936	6047.948333	1831.454102	-35.511364
649.998936	6047.948333	1830.458984	98.948753
649.998936	6047.948333	1829.462891	-73.900299
649.998936	6047.948333	1828.466797	139.650101
649.998936	6047.948333	1827.470703	19.585039
649.998936	6047.948333	1826.474609	103.439354
649.998936	6047.948333	1825.478516	45.725468
649.998936	6047.948333	1824.481445	43.155331
649.998936	6047.948333	1823.484375	148.443130
649.998936	6047.948333	1822.487305	-67.545212
649.998936	6047.948333	1821.490234	179.061142
649.998936	6047.948333	1820.493164	58.931843
649.998936	6047.948333	1819.495117	245.464767
649.998936	6047.948333	1818.498047	12.727610
649.998936	6047.948333	1817.500000	136.869385
649.998936	6047.948333	1816.500977	66.988892
649.998936	6047.948333	1815.502930	241.279510
649.998936	6047.948333	1814.504883	149.799713
649.998936	6047.948333	1813.505859	173.183075
649.998936	6047.948333	1812.506836	19.476160
649.998936	6047.948333	1811.507813	198.293030
649.998936	6047.948333	1810.508789	68.487930
649.998936	6047.948333	1809.508789	168.249023
649.998936	6047.948333	1808.508789	165.136215
649.998936	6047.948333	1807.508789	-7.719352
649.998936	6047.948333	1806.508789	60.827156
649.998936	6047.948333	1805.508789	69.578278
649.998936	6047.948333	1804.508789	161.902969
649.998936	6047.948333	1803.507813	-106.503479
649.998936	6047.948333	1802.506836	59.774540
649.998936	6047.948333	1801.505859	101.800346
649.998936	6047.948333	1800.504883	-56.743618
649.998936	6047.948333	1799.502930	25.787043
649.998936	6047.948333	1798.501953	151.203140
649.998936	6047.948333	1797.500000	95.215958
649.998936	6047.948333	1796.498047	-139.685913
649.998936	6047.948333	1795.496094	145.363129
649.998936	6047.948333	1794.493164	46.375484
649.998936	6047.948333	1793.491211	90.426994
649.998936	6047.948333	1792.488281	86.752525
649.998936	6047.948333	1791.485352	195.044510
649.998936	6047.948333	1790.482422	-1.714727
649.998936	6047.948333	1789.478516	196.996323
649.998936	6047.948333	1788.475586	71.686028
649.998936	6047.948333	1787.471680	-48.855419
649.998936	6047.948333	1786.467773	28.216488
649.998936	6047.948333	1785.463867	188.532516
649.998936	6047.948333	1784.459961	32.223934
649.998936	6047.948333	1783.455078	-45.545326
649.998936	6047.948333	1782.450195	38.447311
649.998936	6047.948333	1781.445313	-13.207880
649.998936	6047.948333	1780.440430	49.266392
649.998936	6047.948333	1779.435547	190.139603
649.998936	6047.948333	1778.429688	119.347984
649.998936	6047.948333	1777.424805	-41.769173
649.998936	6047.948333	1776.418945	132.188446
649.998936	6047.948333	1775.413086	37.572128
649.998936	6047.948333	1774.406250	52.216911
649.998936	6047.948333	1773.400391	76.318840
649.998936	6047.948333	1772.393555	62.378059
649.998936	6047.948333	1771.386719	-3.825747
649.998936	6047.948333	1770.379883	5.910543
649.998936	6047.948333	1769.373047	108.155296
649.998936	6047.948333	1768.365234	-17.458303
649.998936	6047.948333	1767.358398	65.695465
649.998936	6047.948333	1766.350586	61.018681
649.998936	6047.948333	1765.342773	32.591084
649.998936	6047.948333	1764.334961	87.115341
649.998936	6047.948333	1763.326172	-81.243286
649.998936	6047.948333	1762.318359	120.140823
649.998936	6047.948333	1761.309570	110.518044
649.998936	6047.948333	1760.300781	174.300842
649.998936	6047.948333	1759.291016	-65.166924
649.998936	6047.948333	1758.282227	62.486275
649.998936	6047.948333	1757.272461	-13.575397
649.998936	6047.948333	1756.262695	-49.404137
649.998936	6047.948333	1755.252930	18.880995
649.998936	6047.948333	1754.243164	-78.544136
649.998936	6047.948333	1753.233398	-55.310295
649.998936	6047.948333	1752.222656	126.358269
649.998936	6047.948333	1751.211914	-37.373634
649.998936	6047.948333	1750.201172	37.739212
649.998936	6047.948333	1749.190430	112.783836
649.998936	6047.948333	1748.179688	60.123650
649.998936	6047.948333	1747.167969	2.714900
649.998936	6047.948333	1746.156250	-33.446339
649.998936	6047.948333	1745.144531	48.483326
649.998936	6047.948333	1744.132813	-6.644400
649.998936	6047.948333	1743.121094	79.894745
649.998936	6047.948333	1742.108398	-159.453384
649.998936	6047.948333	1741.095703	-35.229618
649.998936	6047.948333	1740.083008	-3.134002
649.998936	6047.948333	1739.070313	-155.137558
649.998936	6047.948333	1738.057617	20.802359
649.998936	6047.948333	1737.043945	24.447382
649.998936	6047.948333	1736.030273	65.786163
649.998936	6047.948333	1735.016602	22.190474
649.998936	6047.948333	1734.002930	70.511566
649.998936	6047.948333	1732.989258	12.716445
649.998936	6047.948333	1731.974609	-127.573547
649.998936	6047.948333	1730.959961	-20.466249
649.998936	6047.948333	1729.945313	-50.058125
649.998936	6047.948333	1728.930664	9.819007
649.998936	6047.948333	1727.916016	194.434402
649.998936	6047.948333	1726.900391	87.017189
649.998936	6047.948333	1725.885742	-27.451281
649.998936	6047.948333	1724.870117	-78.376770
649.998936	6047.948333	1723.853516	51.847294
649.998936	6047.948333	1722.837891	43.199070
649.998936	6047.948333	1721.822266	-139.524979
649.998936	6047.948333	1720.805664	-94.122276
649.998936	6047.948333	1719.789063	-18.207556
649.998936	6047.948333	1718.772461	69.397171
649.998936	6047.948333	1717.754883	84.075081
649.998936	6047.948333	1716.738281	7.079619
649.998936	6047.948333	1715.720703	21.696882
649.998936	6047.948333	1714.703125	45.670200
649.998936	6047.948333	1713.685547	-134.705215
649.998936	6047.948333	1712.667969	6.618751
649.998936	6047.948333	1711.649414	159.589111
649.998936	6047.948333	1710.630859	-107.645889
649.998936	6047.948333	1709.612305	-201.164566
649.998936	6047.948333	1708.593750	15.007011
649.998936	6047.948333	1707.575195	26.992195
649.998936	6047.948333	1706.555664	-174.476990
649.998936	6047.948333	1705.536133	-33.565098
649.998936	6047.948333	1704.516602	-21.674667
649.998936	6047.948333	1703.497070	81.592094
649.998936	6047.948333	1702.477539	-30.804541
649.998936	6047.948333	1701.457031	-11.986647
649.998936	6047.948333	1700.437500	-33.023067
649.998936	6047.948333	1699.416992	168.410538
649.998936	6047.948333	1698.395508	-89.222694
649.998936	6047.948333	1697.375000	-171.192596
649.998936	6047.948333	1696.354492	177.531525
649.998936	6047.948333	1695.333008	-0.469869
649.998936	6047.948333	1694.311523	27.472931
649.998936	6047.948333	1693.290039	85.790459
649.998936	6047.948333	1692.267578	-52.415428
649.998936	6047.948333	1691.246094	-10.527071
649.998936	6047.948333	1690.223633	-90.263016
649.998936	6047.948333	1689.201172	-20.389910
649.998936	6047.948333	1688.178711	-93.132484
649.998936	6047.948333	1687.155273	-49.044746
649.998936	6047.948333	1686.132813	-37.699226
649.998936	6047.948333	1685.109375	-52.081753
649.998936	6047.948333	1684.085938	-145.882690
649.998936	6047.948333	1683.062500	61.526279
649.998936	6047.948333	1682.039063	-74.326134
649.998936	6047.948333	1681.014648	-128.466202
649.998936	6047.948333	1679.990234	78.746368
649.998936	6047.948333	1678.965820	17.554657
649.998936	6047.948333	1677.941406	-6.313398
649.998936	6047.948333	1676.916992	144.719269
649.998936	6047.948333	1675.891602	48.505692
649.998936	6047.948333	1674.866211	89.853287
649.998936	6047.948333	1673.840820	21.616453
649.998936	6047.948333	1672.815430	-41.952435
649.998936	6047.948333	1671.790039	92.526917
649.998936	6047.948333	1670.763672	17.277605
649.998936	6047.948333	1669.737305	16.567577
649.998936	6047.948333	1668.710938	50.768833
649.998936	6047.948333	1667.684570	178.063919
649.998936	6047.948333	1666.658203	121.406395
649.998936	6047.948333	1665.630859	106.638451
649.998936	6047.948333	1664.603516	103.493912
649.998936	6047.948333	1663.576172	84.050369
649.998936	6047.948333	1662.548828	18.081696
649.998936	6047.948333	1661.520508	59.087261
649.998936	6047.948333	1660.493164	146.567657
649.998936	6047.948333	1659.464844	120.092499
649.998936	6047.948333	1658.436523	184.252136
649.998936	6047.948333	1657.408203	227.462051
649.998936	6047.948333	1656.378906	207.910065
649.998936	6047.948333	1655.350586	216.231644
649.998936	6047.948333	1654.321289	245.433792
649.998936	6047.948333	1653.291992	330.336456
649.998936	6047.948333	1652.261719	15.910572
649.998936	6047.948333	1651.232422	144.900116
649.998936	6047.948333	1650.202148	51.058140
649.998936	6047.948333	1649.171875	31.482899
649.998936	6047.948333	1648.141602	269.380920
649.998936	6047.948333	1647.111328	182.497772
649.998936	6047.948333	1646.080078	404.020233
649.998936	6047.948333	1645.049805	497.952087
649.998936	6047.948333	1644.018555	482.896912
649.998936	6047.948333	1642.987305	263.914948
649.998936	6047.948333	1641.955078	260.475189
649.998936	6047.948333	1640.923828	298.733795
649.998936	6047.948333	1639.891602	408.762085
649.998936	6047.948333	1638.859375	333.498230
649.998936	6047.948333	1637.827148	508.289398
649.998936	6047.948333	1636.794922	435.341125
649.998936	6047.948333	1635.761719	552.175171
649.998936	6047.948333	1634.729492	530.141968
649.998936	6047.948333	1633.696289	410.949677
649.998936	6047.948333	1632.662109	712.735352
649.998936	6047.948333	1631.628906	600.486389
649.998936	6047.948333	1630.594727	610.807129
649.998936	6047.948333	1629.561523	678.917419
649.998936	6047.948333	1628.527344	569.042725
649.998936	6047.948333	1627.493164	595.536377
649.998936	6047.948333	1626.458008	598.912231
649.998936	6047.948333	1625.423828	590.745483
649.998936	6047.948333	1624.388672	356.269562
649.998936	6047.948333	1623.353516	611.356201
649.998936	6047.948333	1622.318359	522.398499
649.998936	6047.948333	1621.282227	588.101807
649.998936	6047.948333	1620.247070	464.577332
649.998936	6047.948333	1619.210938	518.739258
649.998936	6047.948333	1618.174805	727.425110
649.998936	6047.948333	1617.137695	735.394958
649.998936	6047.948333	1616.101563	711.093018
649.998936	6047.948333	1615.064453	493.162018
649.998936	6047.948333	1614.027344	644.085999
649.998936	6047.948333	1612.990234	562.220825
649.998936	6047.948333	1611.953125	719.997742
649.998936	6047.948333	1610.916016	771.763794
649.998936	6047.948333	1609.877930	742.906189
649.998936	6047.948333	1608.839844	707.161743
649.998936	6047.948333	1607.801758	719.783875
649.998936	6047.948333	1606.763672	718.600220
649.998936	6047.948333	1605.724609	793.360168
649.998936	6047.948333	1604.685547	755.365173
649.998936	6047.948333	1603.646484	802.507141
649.998936	6047.948333	1602.607422	718.550354
649.998936	6047.948333	1601.568359	813.991211
649.998936	6047.948333	1600.528320	755.372375
649.998936	6047.948333	1599.489258	802.525146
649.998936	6047.948333	1598.449219	900.224609
649.998936	6047.948333	1597.408203	800.300293
649.998936	6047.948333	1596.368164	647.600220
649.998936	6047.948333	1595.327148	692.485352
649.998936	6047.948333	1594.287109	686.855408
649.998936	6047.948333	1593.246094	777.662109
649.998936	6047.948333	1592.204102	928.121948
649.998936	6047.948333	1591.163086	761.849243
649.998936	6047.948333	1590.121094	641.541077
649.998936	6047.948333	1589.079102	711.700684
649.998936	6047.948333	1588.037109	729.098999
649.998936	6047.948333	1586.995117	615.801941
649.998936	6047.948333	1585.953125	575.932007
649.998936	6047.948333	1584.910156	600.274170
649.998936	6047.948333	1583.867188	794.217163
649.998936	6047.948333	1582.824219	722.311401
649.998936	6047.948333	1581.781250	567.983887
649.998936	6047.948333	1580.737305	539.705322
649.998936	6047.948333	1579.693359	559.548035
649.998936	6047.948333	1578.649414	464.929413
649.998936	6047.948333	1577.605469	484.824524
649.998936	6047.948333	1576.561523	577.970154
649.998936	6047.948333	1575.516602	472.026337
649.998936	6047.948333	1574.472656	704.737732
649.998936	6047.948333	1573.427734	409.013916
649.998936	6047.948333	1572.381836	445.016571
649.998936	6047.948333	1571.336914	542.767395
649.998936	6047.948333	1570.291016	606.212402
649.998936	6047.948333	1569.246094	502.822418
649.998936	6047.948333	1568.200195	614.287598
649.998936	6047.948333	1567.153320	424.165131
649.998936	6047.948333	1566.107422	508.246918
649.998936	6047.948333	1565.060547	587.751709
649.998936	6047.948333	1564.013672	731.183960
649.998936	6047.948333	1562.966797	575.541321
649.998936	6047.948333	1561.919922	486.177521
