#X		#Y		#Wave		#Intensity
30693.705638	-3116.687500	1999.980469	-123.460503
30693.705638	-3116.687500	1999.016602	-117.062027
30693.705638	-3116.687500	1998.052734	79.772316
30693.705638	-3116.687500	1997.087891	-368.876984
30693.705638	-3116.687500	1996.123047	43.775928
30693.705638	-3116.687500	1995.158203	83.631218
30693.705638	-3116.687500	1994.193359	194.268082
30693.705638	-3116.687500	1993.228516	-62.625553
30693.705638	-3116.687500	1992.262695	-100.018578
30693.705638	-3116.687500	1991.297852	-168.065277
30693.705638	-3116.687500	1990.332031	-24.131121
30693.705638	-3116.687500	1989.366211	-168.167419
30693.705638	-3116.687500	1988.399414	-8.682224
30693.705638	-3116.687500	1987.433594	-144.453796
30693.705638	-3116.687500	1986.466797	-191.923416
30693.705638	-3116.687500	1985.500977	34.294910
30693.705638	-3116.687500	1984.534180	10.011411
30693.705638	-3116.687500	1983.567383	355.770691
30693.705638	-3116.687500	1982.599609	92.795044
30693.705638	-3116.687500	1981.632813	224.556259
30693.705638	-3116.687500	1980.665039	56.721878
30693.705638	-3116.687500	1979.697266	145.192825
30693.705638	-3116.687500	1978.729492	124.373100
30693.705638	-3116.687500	1977.761719	-47.626755
30693.705638	-3116.687500	1976.792969	83.516129
30693.705638	-3116.687500	1975.825195	181.975250
30693.705638	-3116.687500	1974.856445	40.536785
30693.705638	-3116.687500	1973.887695	342.737091
30693.705638	-3116.687500	1972.918945	303.947906
30693.705638	-3116.687500	1971.949219	-23.821350
30693.705638	-3116.687500	1970.980469	190.548859
30693.705638	-3116.687500	1970.010742	101.196892
30693.705638	-3116.687500	1969.041016	511.835052
30693.705638	-3116.687500	1968.071289	123.481262
30693.705638	-3116.687500	1967.101563	392.768250
30693.705638	-3116.687500	1966.130859	284.702332
30693.705638	-3116.687500	1965.161133	230.524353
30693.705638	-3116.687500	1964.190430	193.291275
30693.705638	-3116.687500	1963.219727	89.293304
30693.705638	-3116.687500	1962.249023	292.748962
30693.705638	-3116.687500	1961.277344	33.162975
30693.705638	-3116.687500	1960.306641	307.382721
30693.705638	-3116.687500	1959.334961	44.928993
30693.705638	-3116.687500	1958.363281	79.974350
30693.705638	-3116.687500	1957.391602	117.251007
30693.705638	-3116.687500	1956.419922	117.426361
30693.705638	-3116.687500	1955.447266	530.427368
30693.705638	-3116.687500	1954.474609	326.146698
30693.705638	-3116.687500	1953.501953	97.199966
30693.705638	-3116.687500	1952.529297	325.194550
30693.705638	-3116.687500	1951.556641	162.358551
30693.705638	-3116.687500	1950.583984	100.154167
30693.705638	-3116.687500	1949.610352	435.669464
30693.705638	-3116.687500	1948.636719	149.778549
30693.705638	-3116.687500	1947.663086	11.175068
30693.705638	-3116.687500	1946.689453	-112.744545
30693.705638	-3116.687500	1945.715820	-212.162308
30693.705638	-3116.687500	1944.741211	-230.654251
30693.705638	-3116.687500	1943.767578	172.696930
30693.705638	-3116.687500	1942.792969	259.473511
30693.705638	-3116.687500	1941.818359	179.429031
30693.705638	-3116.687500	1940.842773	221.954834
30693.705638	-3116.687500	1939.868164	136.969482
30693.705638	-3116.687500	1938.892578	191.678772
30693.705638	-3116.687500	1937.916992	116.487679
30693.705638	-3116.687500	1936.941406	90.307358
30693.705638	-3116.687500	1935.965820	-190.595825
30693.705638	-3116.687500	1934.990234	-74.684303
30693.705638	-3116.687500	1934.013672	-198.748337
30693.705638	-3116.687500	1933.037109	73.809204
30693.705638	-3116.687500	1932.060547	99.089630
30693.705638	-3116.687500	1931.083984	195.344406
30693.705638	-3116.687500	1930.107422	259.789581
30693.705638	-3116.687500	1929.129883	-5.977482
30693.705638	-3116.687500	1928.153320	-5.037366
30693.705638	-3116.687500	1927.175781	108.426262
30693.705638	-3116.687500	1926.198242	-159.481430
30693.705638	-3116.687500	1925.219727	-97.261436
30693.705638	-3116.687500	1924.242188	214.256409
30693.705638	-3116.687500	1923.263672	230.073563
30693.705638	-3116.687500	1922.285156	397.405487
30693.705638	-3116.687500	1921.306641	364.460510
30693.705638	-3116.687500	1920.328125	104.489677
30693.705638	-3116.687500	1919.349609	-130.898666
30693.705638	-3116.687500	1918.370117	236.824799
30693.705638	-3116.687500	1917.391602	-83.771576
30693.705638	-3116.687500	1916.412109	37.502701
30693.705638	-3116.687500	1915.431641	153.937119
30693.705638	-3116.687500	1914.452148	111.854897
30693.705638	-3116.687500	1913.472656	-130.109879
30693.705638	-3116.687500	1912.492188	-323.125641
30693.705638	-3116.687500	1911.511719	-45.469898
30693.705638	-3116.687500	1910.531250	414.979797
30693.705638	-3116.687500	1909.550781	32.152344
30693.705638	-3116.687500	1908.569336	24.789192
30693.705638	-3116.687500	1907.588867	-291.864929
30693.705638	-3116.687500	1906.607422	-55.418156
30693.705638	-3116.687500	1905.625977	-86.834946
30693.705638	-3116.687500	1904.644531	-123.013252
30693.705638	-3116.687500	1903.662109	208.491272
30693.705638	-3116.687500	1902.680664	-0.338005
30693.705638	-3116.687500	1901.698242	-11.890212
30693.705638	-3116.687500	1900.715820	-30.640652
30693.705638	-3116.687500	1899.733398	-258.478149
30693.705638	-3116.687500	1898.750000	29.447760
30693.705638	-3116.687500	1897.767578	-134.906479
30693.705638	-3116.687500	1896.784180	-214.013626
30693.705638	-3116.687500	1895.800781	-86.392982
30693.705638	-3116.687500	1894.817383	-102.107750
30693.705638	-3116.687500	1893.833984	20.769007
30693.705638	-3116.687500	1892.850586	-38.503857
30693.705638	-3116.687500	1891.866211	101.504120
30693.705638	-3116.687500	1890.881836	52.139862
30693.705638	-3116.687500	1889.897461	-193.777496
30693.705638	-3116.687500	1888.913086	152.778137
30693.705638	-3116.687500	1887.927734	-401.114380
30693.705638	-3116.687500	1886.943359	-161.245743
30693.705638	-3116.687500	1885.958008	-229.488205
30693.705638	-3116.687500	1884.972656	-212.728241
30693.705638	-3116.687500	1883.987305	-132.840576
30693.705638	-3116.687500	1883.001953	-125.645325
30693.705638	-3116.687500	1882.015625	5.268457
30693.705638	-3116.687500	1881.029297	-14.068379
30693.705638	-3116.687500	1880.042969	49.068787
30693.705638	-3116.687500	1879.056641	-173.648224
30693.705638	-3116.687500	1878.070313	-23.158962
30693.705638	-3116.687500	1877.083984	-156.030014
30693.705638	-3116.687500	1876.096680	118.038261
30693.705638	-3116.687500	1875.109375	2.271244
30693.705638	-3116.687500	1874.122070	72.996727
30693.705638	-3116.687500	1873.134766	-57.119640
30693.705638	-3116.687500	1872.146484	137.116302
30693.705638	-3116.687500	1871.159180	-135.591293
30693.705638	-3116.687500	1870.170898	-159.000198
30693.705638	-3116.687500	1869.182617	-146.078979
30693.705638	-3116.687500	1868.194336	258.585815
30693.705638	-3116.687500	1867.205078	111.969612
30693.705638	-3116.687500	1866.216797	23.449734
30693.705638	-3116.687500	1865.227539	-69.825066
30693.705638	-3116.687500	1864.238281	124.486755
30693.705638	-3116.687500	1863.249023	-53.250324
30693.705638	-3116.687500	1862.259766	240.068375
30693.705638	-3116.687500	1861.269531	108.322578
30693.705638	-3116.687500	1860.279297	-148.894440
30693.705638	-3116.687500	1859.290039	-27.028597
30693.705638	-3116.687500	1858.298828	-30.671412
30693.705638	-3116.687500	1857.308594	47.735588
30693.705638	-3116.687500	1856.318359	340.835754
30693.705638	-3116.687500	1855.327148	-162.120102
30693.705638	-3116.687500	1854.335938	-83.693268
30693.705638	-3116.687500	1853.344727	199.650452
30693.705638	-3116.687500	1852.353516	367.179626
30693.705638	-3116.687500	1851.362305	245.420578
30693.705638	-3116.687500	1850.370117	376.733459
30693.705638	-3116.687500	1849.377930	298.381104
30693.705638	-3116.687500	1848.385742	97.196533
30693.705638	-3116.687500	1847.393555	-62.981464
30693.705638	-3116.687500	1846.401367	251.246506
30693.705638	-3116.687500	1845.408203	-31.710730
30693.705638	-3116.687500	1844.415039	198.112869
30693.705638	-3116.687500	1843.421875	93.311996
30693.705638	-3116.687500	1842.428711	36.643429
30693.705638	-3116.687500	1841.435547	275.862030
30693.705638	-3116.687500	1840.441406	149.372574
30693.705638	-3116.687500	1839.448242	176.790192
30693.705638	-3116.687500	1838.454102	156.077744
30693.705638	-3116.687500	1837.459961	94.465210
30693.705638	-3116.687500	1836.464844	90.519318
30693.705638	-3116.687500	1835.470703	249.918045
30693.705638	-3116.687500	1834.475586	140.133743
30693.705638	-3116.687500	1833.480469	92.787186
30693.705638	-3116.687500	1832.485352	338.396973
30693.705638	-3116.687500	1831.490234	-59.654999
30693.705638	-3116.687500	1830.495117	48.927250
30693.705638	-3116.687500	1829.499023	-25.010551
30693.705638	-3116.687500	1828.502930	136.189850
30693.705638	-3116.687500	1827.506836	292.457275
30693.705638	-3116.687500	1826.510742	254.283127
30693.705638	-3116.687500	1825.513672	335.971832
30693.705638	-3116.687500	1824.517578	441.523346
30693.705638	-3116.687500	1823.520508	216.100067
30693.705638	-3116.687500	1822.523438	-124.385262
30693.705638	-3116.687500	1821.526367	184.652603
30693.705638	-3116.687500	1820.529297	153.226608
30693.705638	-3116.687500	1819.531250	260.676025
30693.705638	-3116.687500	1818.533203	305.710876
30693.705638	-3116.687500	1817.535156	276.391113
30693.705638	-3116.687500	1816.537109	388.245392
30693.705638	-3116.687500	1815.539063	183.956818
30693.705638	-3116.687500	1814.540039	75.383759
30693.705638	-3116.687500	1813.541992	-85.912971
30693.705638	-3116.687500	1812.542969	-65.419189
30693.705638	-3116.687500	1811.543945	253.962753
30693.705638	-3116.687500	1810.543945	458.311615
30693.705638	-3116.687500	1809.544922	232.044754
30693.705638	-3116.687500	1808.544922	110.939156
30693.705638	-3116.687500	1807.544922	307.661438
30693.705638	-3116.687500	1806.544922	332.115631
30693.705638	-3116.687500	1805.544922	337.315155
30693.705638	-3116.687500	1804.544922	320.880920
30693.705638	-3116.687500	1803.543945	390.308960
30693.705638	-3116.687500	1802.542969	294.801880
30693.705638	-3116.687500	1801.541992	258.881042
30693.705638	-3116.687500	1800.541016	170.315903
30693.705638	-3116.687500	1799.539063	356.115845
30693.705638	-3116.687500	1798.538086	16.724825
30693.705638	-3116.687500	1797.536133	357.266998
30693.705638	-3116.687500	1796.534180	399.365875
30693.705638	-3116.687500	1795.532227	379.293091
30693.705638	-3116.687500	1794.529297	461.606232
30693.705638	-3116.687500	1793.527344	407.846680
30693.705638	-3116.687500	1792.524414	523.184143
30693.705638	-3116.687500	1791.521484	35.403233
30693.705638	-3116.687500	1790.518555	90.885117
30693.705638	-3116.687500	1789.514648	515.421265
30693.705638	-3116.687500	1788.511719	-13.052717
30693.705638	-3116.687500	1787.507813	406.252686
30693.705638	-3116.687500	1786.503906	251.458969
30693.705638	-3116.687500	1785.500000	258.418213
30693.705638	-3116.687500	1784.496094	155.732544
30693.705638	-3116.687500	1783.491211	248.030594
30693.705638	-3116.687500	1782.486328	233.065506
30693.705638	-3116.687500	1781.481445	-84.142494
30693.705638	-3116.687500	1780.476563	64.702240
30693.705638	-3116.687500	1779.471680	234.711823
30693.705638	-3116.687500	1778.465820	-13.905695
30693.705638	-3116.687500	1777.460938	307.812836
30693.705638	-3116.687500	1776.455078	184.860764
30693.705638	-3116.687500	1775.449219	427.654816
30693.705638	-3116.687500	1774.442383	159.465088
30693.705638	-3116.687500	1773.436523	197.560898
30693.705638	-3116.687500	1772.429688	33.625809
30693.705638	-3116.687500	1771.422852	106.971962
30693.705638	-3116.687500	1770.416016	-90.485428
30693.705638	-3116.687500	1769.409180	196.067337
30693.705638	-3116.687500	1768.402344	252.170563
30693.705638	-3116.687500	1767.394531	227.407806
30693.705638	-3116.687500	1766.386719	330.539581
30693.705638	-3116.687500	1765.378906	281.678558
30693.705638	-3116.687500	1764.371094	197.080063
30693.705638	-3116.687500	1763.362305	195.286087
30693.705638	-3116.687500	1762.354492	401.863403
30693.705638	-3116.687500	1761.345703	392.536987
30693.705638	-3116.687500	1760.336914	221.924164
30693.705638	-3116.687500	1759.328125	126.979652
30693.705638	-3116.687500	1758.318359	-65.223999
30693.705638	-3116.687500	1757.308594	353.327698
30693.705638	-3116.687500	1756.299805	125.261314
30693.705638	-3116.687500	1755.290039	15.424893
30693.705638	-3116.687500	1754.279297	-125.332649
30693.705638	-3116.687500	1753.269531	107.588493
30693.705638	-3116.687500	1752.258789	200.658356
30693.705638	-3116.687500	1751.249023	16.792034
30693.705638	-3116.687500	1750.238281	114.181564
30693.705638	-3116.687500	1749.226563	-17.987959
30693.705638	-3116.687500	1748.215820	232.615799
30693.705638	-3116.687500	1747.204102	166.252243
30693.705638	-3116.687500	1746.193359	149.342422
30693.705638	-3116.687500	1745.181641	30.656828
30693.705638	-3116.687500	1744.168945	228.306519
30693.705638	-3116.687500	1743.157227	135.235275
30693.705638	-3116.687500	1742.144531	504.749695
30693.705638	-3116.687500	1741.132813	50.112705
30693.705638	-3116.687500	1740.120117	324.710327
30693.705638	-3116.687500	1739.106445	138.874557
30693.705638	-3116.687500	1738.093750	16.621521
30693.705638	-3116.687500	1737.080078	210.283493
30693.705638	-3116.687500	1736.067383	-93.909676
30693.705638	-3116.687500	1735.053711	-2.073633
30693.705638	-3116.687500	1734.040039	-235.780472
30693.705638	-3116.687500	1733.025391	-278.685883
30693.705638	-3116.687500	1732.011719	-90.824081
30693.705638	-3116.687500	1730.997070	-16.321726
30693.705638	-3116.687500	1729.982422	13.208922
30693.705638	-3116.687500	1728.967773	66.089066
30693.705638	-3116.687500	1727.952148	-76.685341
30693.705638	-3116.687500	1726.937500	60.570263
30693.705638	-3116.687500	1725.921875	308.206116
30693.705638	-3116.687500	1724.906250	-162.203384
30693.705638	-3116.687500	1723.890625	-253.801743
30693.705638	-3116.687500	1722.875000	129.638748
30693.705638	-3116.687500	1721.858398	-312.800873
30693.705638	-3116.687500	1720.841797	-68.607903
30693.705638	-3116.687500	1719.825195	-170.296753
30693.705638	-3116.687500	1718.808594	-112.284134
30693.705638	-3116.687500	1717.791992	102.991753
30693.705638	-3116.687500	1716.774414	113.570305
30693.705638	-3116.687500	1715.756836	123.971092
30693.705638	-3116.687500	1714.739258	-185.247864
30693.705638	-3116.687500	1713.721680	-292.559784
30693.705638	-3116.687500	1712.704102	-268.519836
30693.705638	-3116.687500	1711.685547	-73.306122
30693.705638	-3116.687500	1710.667969	-312.521118
30693.705638	-3116.687500	1709.649414	-94.245155
30693.705638	-3116.687500	1708.630859	81.552460
30693.705638	-3116.687500	1707.611328	-141.658371
30693.705638	-3116.687500	1706.592773	108.800468
30693.705638	-3116.687500	1705.573242	-358.511810
30693.705638	-3116.687500	1704.553711	109.580772
30693.705638	-3116.687500	1703.534180	38.243954
30693.705638	-3116.687500	1702.513672	-2.771696
30693.705638	-3116.687500	1701.494141	17.004576
30693.705638	-3116.687500	1700.473633	-10.244324
30693.705638	-3116.687500	1699.453125	-0.161896
30693.705638	-3116.687500	1698.432617	-11.306847
30693.705638	-3116.687500	1697.412109	-55.372620
30693.705638	-3116.687500	1696.390625	-195.552673
30693.705638	-3116.687500	1695.369141	-260.935150
30693.705638	-3116.687500	1694.347656	-237.520096
30693.705638	-3116.687500	1693.326172	-127.700035
30693.705638	-3116.687500	1692.304688	-139.685883
30693.705638	-3116.687500	1691.282227	-212.618881
30693.705638	-3116.687500	1690.260742	69.736664
30693.705638	-3116.687500	1689.238281	153.141098
30693.705638	-3116.687500	1688.214844	112.498482
30693.705638	-3116.687500	1687.192383	-210.980087
30693.705638	-3116.687500	1686.168945	-251.792694
30693.705638	-3116.687500	1685.146484	155.768295
30693.705638	-3116.687500	1684.123047	189.382141
30693.705638	-3116.687500	1683.099609	-61.994598
30693.705638	-3116.687500	1682.075195	22.749920
30693.705638	-3116.687500	1681.051758	268.404388
30693.705638	-3116.687500	1680.027344	-22.878096
30693.705638	-3116.687500	1679.002930	-83.185410
30693.705638	-3116.687500	1677.978516	262.299194
30693.705638	-3116.687500	1676.953125	257.696899
30693.705638	-3116.687500	1675.928711	192.381516
30693.705638	-3116.687500	1674.903320	311.143860
30693.705638	-3116.687500	1673.877930	154.720917
30693.705638	-3116.687500	1672.852539	70.499786
30693.705638	-3116.687500	1671.826172	184.241959
30693.705638	-3116.687500	1670.800781	88.208885
30693.705638	-3116.687500	1669.774414	283.235535
30693.705638	-3116.687500	1668.748047	-76.108566
30693.705638	-3116.687500	1667.721680	249.071579
30693.705638	-3116.687500	1666.694336	613.595703
30693.705638	-3116.687500	1665.667969	179.667587
30693.705638	-3116.687500	1664.640625	381.025757
30693.705638	-3116.687500	1663.613281	414.732330
30693.705638	-3116.687500	1662.585938	504.170715
30693.705638	-3116.687500	1661.557617	235.365448
30693.705638	-3116.687500	1660.530273	394.409637
30693.705638	-3116.687500	1659.501953	332.476837
30693.705638	-3116.687500	1658.473633	330.928375
30693.705638	-3116.687500	1657.444336	324.651917
30693.705638	-3116.687500	1656.416016	427.526245
30693.705638	-3116.687500	1655.386719	133.093613
30693.705638	-3116.687500	1654.358398	221.918549
30693.705638	-3116.687500	1653.328125	66.824577
30693.705638	-3116.687500	1652.298828	480.503113
30693.705638	-3116.687500	1651.269531	671.160034
30693.705638	-3116.687500	1650.239258	437.030518
30693.705638	-3116.687500	1649.208984	588.075928
30693.705638	-3116.687500	1648.178711	555.775513
30693.705638	-3116.687500	1647.148438	651.002991
30693.705638	-3116.687500	1646.117188	514.270630
30693.705638	-3116.687500	1645.086914	741.542053
30693.705638	-3116.687500	1644.055664	1070.661621
30693.705638	-3116.687500	1643.024414	910.663330
30693.705638	-3116.687500	1641.992188	794.707764
30693.705638	-3116.687500	1640.960938	1035.526367
30693.705638	-3116.687500	1639.928711	979.766113
30693.705638	-3116.687500	1638.896484	1220.402344
30693.705638	-3116.687500	1637.864258	1046.525513
30693.705638	-3116.687500	1636.832031	879.648254
30693.705638	-3116.687500	1635.798828	1096.970093
30693.705638	-3116.687500	1634.766602	1006.486389
30693.705638	-3116.687500	1633.733398	1244.509888
30693.705638	-3116.687500	1632.699219	994.406494
30693.705638	-3116.687500	1631.666016	1156.028809
30693.705638	-3116.687500	1630.632813	1241.299194
30693.705638	-3116.687500	1629.598633	924.319946
30693.705638	-3116.687500	1628.564453	1273.064331
30693.705638	-3116.687500	1627.530273	1316.681641
30693.705638	-3116.687500	1626.495117	1297.904907
30693.705638	-3116.687500	1625.460938	1648.726929
30693.705638	-3116.687500	1624.425781	1546.796875
30693.705638	-3116.687500	1623.390625	1553.443604
30693.705638	-3116.687500	1622.355469	1818.654053
30693.705638	-3116.687500	1621.319336	1936.061768
30693.705638	-3116.687500	1620.284180	1857.337280
30693.705638	-3116.687500	1619.248047	1880.168823
30693.705638	-3116.687500	1618.211914	2313.598145
30693.705638	-3116.687500	1617.174805	1988.162964
30693.705638	-3116.687500	1616.138672	2267.002441
30693.705638	-3116.687500	1615.101563	2508.875244
30693.705638	-3116.687500	1614.065430	2437.267578
30693.705638	-3116.687500	1613.027344	2575.396729
30693.705638	-3116.687500	1611.990234	2494.669678
30693.705638	-3116.687500	1610.953125	2397.906006
30693.705638	-3116.687500	1609.915039	2225.219971
30693.705638	-3116.687500	1608.876953	2266.797607
30693.705638	-3116.687500	1607.838867	2255.471191
30693.705638	-3116.687500	1606.800781	2218.897461
30693.705638	-3116.687500	1605.761719	2412.505859
30693.705638	-3116.687500	1604.723633	2256.412109
30693.705638	-3116.687500	1603.684570	2240.753418
30693.705638	-3116.687500	1602.644531	2422.944824
30693.705638	-3116.687500	1601.605469	2598.261719
30693.705638	-3116.687500	1600.566406	2888.537598
30693.705638	-3116.687500	1599.526367	2898.346924
30693.705638	-3116.687500	1598.486328	2678.430664
30693.705638	-3116.687500	1597.446289	2821.709717
30693.705638	-3116.687500	1596.405273	2498.683838
30693.705638	-3116.687500	1595.365234	2979.740723
30693.705638	-3116.687500	1594.324219	2725.880615
