#X		#Y		#Wave		#Intensity
29683.635957	-1289.083000	1999.980469	181.373367
29683.635957	-1289.083000	1999.016602	-127.149796
29683.635957	-1289.083000	1998.052734	-112.123329
29683.635957	-1289.083000	1997.087891	29.123320
29683.635957	-1289.083000	1996.123047	306.432037
29683.635957	-1289.083000	1995.158203	26.112825
29683.635957	-1289.083000	1994.193359	-16.482977
29683.635957	-1289.083000	1993.228516	79.466141
29683.635957	-1289.083000	1992.262695	-55.009159
29683.635957	-1289.083000	1991.297852	-3.919799
29683.635957	-1289.083000	1990.332031	-51.973419
29683.635957	-1289.083000	1989.366211	53.279755
29683.635957	-1289.083000	1988.399414	-39.545509
29683.635957	-1289.083000	1987.433594	-55.777802
29683.635957	-1289.083000	1986.466797	21.860233
29683.635957	-1289.083000	1985.500977	-41.582745
29683.635957	-1289.083000	1984.534180	117.387764
29683.635957	-1289.083000	1983.567383	-114.333405
29683.635957	-1289.083000	1982.599609	-27.276167
29683.635957	-1289.083000	1981.632813	96.712196
29683.635957	-1289.083000	1980.665039	146.454132
29683.635957	-1289.083000	1979.697266	70.124405
29683.635957	-1289.083000	1978.729492	20.900684
29683.635957	-1289.083000	1977.761719	13.584114
29683.635957	-1289.083000	1976.792969	181.454346
29683.635957	-1289.083000	1975.825195	124.593910
29683.635957	-1289.083000	1974.856445	35.603588
29683.635957	-1289.083000	1973.887695	35.391602
29683.635957	-1289.083000	1972.918945	109.111778
29683.635957	-1289.083000	1971.949219	160.544022
29683.635957	-1289.083000	1970.980469	22.032486
29683.635957	-1289.083000	1970.010742	-81.972496
29683.635957	-1289.083000	1969.041016	16.119923
29683.635957	-1289.083000	1968.071289	42.654644
29683.635957	-1289.083000	1967.101563	101.158615
29683.635957	-1289.083000	1966.130859	26.565832
29683.635957	-1289.083000	1965.161133	-8.639149
29683.635957	-1289.083000	1964.190430	2.912912
29683.635957	-1289.083000	1963.219727	117.825516
29683.635957	-1289.083000	1962.249023	-57.816578
29683.635957	-1289.083000	1961.277344	189.889343
29683.635957	-1289.083000	1960.306641	83.125252
29683.635957	-1289.083000	1959.334961	87.078041
29683.635957	-1289.083000	1958.363281	63.939995
29683.635957	-1289.083000	1957.391602	70.292175
29683.635957	-1289.083000	1956.419922	0.388919
29683.635957	-1289.083000	1955.447266	-20.346079
29683.635957	-1289.083000	1954.474609	116.211021
29683.635957	-1289.083000	1953.501953	73.296829
29683.635957	-1289.083000	1952.529297	54.948193
29683.635957	-1289.083000	1951.556641	188.895264
29683.635957	-1289.083000	1950.583984	131.195786
29683.635957	-1289.083000	1949.610352	61.223236
29683.635957	-1289.083000	1948.636719	57.552448
29683.635957	-1289.083000	1947.663086	-7.499200
29683.635957	-1289.083000	1946.689453	-57.813614
29683.635957	-1289.083000	1945.715820	196.157928
29683.635957	-1289.083000	1944.741211	199.778839
29683.635957	-1289.083000	1943.767578	31.685053
29683.635957	-1289.083000	1942.792969	18.152775
29683.635957	-1289.083000	1941.818359	11.975379
29683.635957	-1289.083000	1940.842773	10.699189
29683.635957	-1289.083000	1939.868164	102.561584
29683.635957	-1289.083000	1938.892578	-136.450989
29683.635957	-1289.083000	1937.916992	28.906860
29683.635957	-1289.083000	1936.941406	-94.867317
29683.635957	-1289.083000	1935.965820	23.884150
29683.635957	-1289.083000	1934.990234	-60.660099
29683.635957	-1289.083000	1934.013672	45.802338
29683.635957	-1289.083000	1933.037109	51.863331
29683.635957	-1289.083000	1932.060547	55.478748
29683.635957	-1289.083000	1931.083984	115.377861
29683.635957	-1289.083000	1930.107422	-66.947884
29683.635957	-1289.083000	1929.129883	117.713425
29683.635957	-1289.083000	1928.153320	148.237839
29683.635957	-1289.083000	1927.175781	-48.643448
29683.635957	-1289.083000	1926.198242	-32.753384
29683.635957	-1289.083000	1925.219727	78.466042
29683.635957	-1289.083000	1924.242188	33.249084
29683.635957	-1289.083000	1923.263672	-136.553482
29683.635957	-1289.083000	1922.285156	30.837759
29683.635957	-1289.083000	1921.306641	32.090744
29683.635957	-1289.083000	1920.328125	96.846008
29683.635957	-1289.083000	1919.349609	-58.150463
29683.635957	-1289.083000	1918.370117	-3.144500
29683.635957	-1289.083000	1917.391602	-114.110207
29683.635957	-1289.083000	1916.412109	116.601486
29683.635957	-1289.083000	1915.431641	17.878574
29683.635957	-1289.083000	1914.452148	-17.374769
29683.635957	-1289.083000	1913.472656	8.368466
29683.635957	-1289.083000	1912.492188	-4.898856
29683.635957	-1289.083000	1911.511719	18.420641
29683.635957	-1289.083000	1910.531250	-16.753458
29683.635957	-1289.083000	1909.550781	23.645380
29683.635957	-1289.083000	1908.569336	-106.514046
29683.635957	-1289.083000	1907.588867	36.229214
29683.635957	-1289.083000	1906.607422	27.924635
29683.635957	-1289.083000	1905.625977	24.507275
29683.635957	-1289.083000	1904.644531	-0.807515
29683.635957	-1289.083000	1903.662109	44.495029
29683.635957	-1289.083000	1902.680664	87.360474
29683.635957	-1289.083000	1901.698242	25.590296
29683.635957	-1289.083000	1900.715820	51.440666
29683.635957	-1289.083000	1899.733398	118.646866
29683.635957	-1289.083000	1898.750000	73.970711
29683.635957	-1289.083000	1897.767578	-55.778706
29683.635957	-1289.083000	1896.784180	47.916462
29683.635957	-1289.083000	1895.800781	-16.125757
29683.635957	-1289.083000	1894.817383	-2.365973
29683.635957	-1289.083000	1893.833984	-80.926918
29683.635957	-1289.083000	1892.850586	-6.403011
29683.635957	-1289.083000	1891.866211	2.528568
29683.635957	-1289.083000	1890.881836	30.896160
29683.635957	-1289.083000	1889.897461	-32.994801
29683.635957	-1289.083000	1888.913086	-19.171415
29683.635957	-1289.083000	1887.927734	-44.173164
29683.635957	-1289.083000	1886.943359	18.200211
29683.635957	-1289.083000	1885.958008	99.971062
29683.635957	-1289.083000	1884.972656	111.379013
29683.635957	-1289.083000	1883.987305	25.786541
29683.635957	-1289.083000	1883.001953	78.445290
29683.635957	-1289.083000	1882.015625	-87.088539
29683.635957	-1289.083000	1881.029297	111.019814
29683.635957	-1289.083000	1880.042969	30.377895
29683.635957	-1289.083000	1879.056641	44.268559
29683.635957	-1289.083000	1878.070313	12.135770
29683.635957	-1289.083000	1877.083984	-109.589691
29683.635957	-1289.083000	1876.096680	-18.167051
29683.635957	-1289.083000	1875.109375	-127.720169
29683.635957	-1289.083000	1874.122070	89.558655
29683.635957	-1289.083000	1873.134766	-68.363213
29683.635957	-1289.083000	1872.146484	44.789185
29683.635957	-1289.083000	1871.159180	12.748374
29683.635957	-1289.083000	1870.170898	-57.975361
29683.635957	-1289.083000	1869.182617	-48.861931
29683.635957	-1289.083000	1868.194336	-5.896644
29683.635957	-1289.083000	1867.205078	-11.291366
29683.635957	-1289.083000	1866.216797	21.990553
29683.635957	-1289.083000	1865.227539	2.099542
29683.635957	-1289.083000	1864.238281	64.366188
29683.635957	-1289.083000	1863.249023	100.039536
29683.635957	-1289.083000	1862.259766	101.888641
29683.635957	-1289.083000	1861.269531	-166.710480
29683.635957	-1289.083000	1860.279297	-48.923878
29683.635957	-1289.083000	1859.290039	15.714277
29683.635957	-1289.083000	1858.298828	61.021904
29683.635957	-1289.083000	1857.308594	-48.115318
29683.635957	-1289.083000	1856.318359	132.283096
29683.635957	-1289.083000	1855.327148	76.235710
29683.635957	-1289.083000	1854.335938	73.261536
29683.635957	-1289.083000	1853.344727	-21.336220
29683.635957	-1289.083000	1852.353516	2.220263
29683.635957	-1289.083000	1851.362305	-24.849794
29683.635957	-1289.083000	1850.370117	78.212868
29683.635957	-1289.083000	1849.377930	-23.557602
29683.635957	-1289.083000	1848.385742	-36.167568
29683.635957	-1289.083000	1847.393555	62.006485
29683.635957	-1289.083000	1846.401367	-111.958321
29683.635957	-1289.083000	1845.408203	3.033185
29683.635957	-1289.083000	1844.415039	-86.622520
29683.635957	-1289.083000	1843.421875	42.745430
29683.635957	-1289.083000	1842.428711	44.532043
29683.635957	-1289.083000	1841.435547	-18.643560
29683.635957	-1289.083000	1840.441406	-36.105206
29683.635957	-1289.083000	1839.448242	177.286865
29683.635957	-1289.083000	1838.454102	51.580830
29683.635957	-1289.083000	1837.459961	82.161995
29683.635957	-1289.083000	1836.464844	26.198195
29683.635957	-1289.083000	1835.470703	143.255554
29683.635957	-1289.083000	1834.475586	101.692207
29683.635957	-1289.083000	1833.480469	-2.321806
29683.635957	-1289.083000	1832.485352	114.636353
29683.635957	-1289.083000	1831.490234	-25.384991
29683.635957	-1289.083000	1830.495117	31.488192
29683.635957	-1289.083000	1829.499023	42.721024
29683.635957	-1289.083000	1828.502930	37.135464
29683.635957	-1289.083000	1827.506836	156.301819
29683.635957	-1289.083000	1826.510742	1.934462
29683.635957	-1289.083000	1825.513672	-68.446854
29683.635957	-1289.083000	1824.517578	76.999237
29683.635957	-1289.083000	1823.520508	-94.100861
29683.635957	-1289.083000	1822.523438	24.891333
29683.635957	-1289.083000	1821.526367	-4.770744
29683.635957	-1289.083000	1820.529297	18.275244
29683.635957	-1289.083000	1819.531250	-23.391945
29683.635957	-1289.083000	1818.533203	-17.158167
29683.635957	-1289.083000	1817.535156	166.268616
29683.635957	-1289.083000	1816.537109	52.704350
29683.635957	-1289.083000	1815.539063	-120.686348
29683.635957	-1289.083000	1814.540039	179.871002
29683.635957	-1289.083000	1813.541992	-34.203678
29683.635957	-1289.083000	1812.542969	101.092125
29683.635957	-1289.083000	1811.543945	35.377132
29683.635957	-1289.083000	1810.543945	98.811966
29683.635957	-1289.083000	1809.544922	123.939331
29683.635957	-1289.083000	1808.544922	60.575047
29683.635957	-1289.083000	1807.544922	-2.790001
29683.635957	-1289.083000	1806.544922	53.335007
29683.635957	-1289.083000	1805.544922	1.890601
29683.635957	-1289.083000	1804.544922	17.330013
29683.635957	-1289.083000	1803.543945	27.959251
29683.635957	-1289.083000	1802.542969	52.885571
29683.635957	-1289.083000	1801.541992	13.310265
29683.635957	-1289.083000	1800.541016	73.981995
29683.635957	-1289.083000	1799.539063	-3.825530
29683.635957	-1289.083000	1798.538086	44.838223
29683.635957	-1289.083000	1797.536133	117.312012
29683.635957	-1289.083000	1796.534180	15.600251
29683.635957	-1289.083000	1795.532227	28.371565
29683.635957	-1289.083000	1794.529297	76.873657
29683.635957	-1289.083000	1793.527344	149.167252
29683.635957	-1289.083000	1792.524414	226.169464
29683.635957	-1289.083000	1791.521484	55.272079
29683.635957	-1289.083000	1790.518555	32.130577
29683.635957	-1289.083000	1789.514648	-41.059700
29683.635957	-1289.083000	1788.511719	54.847748
29683.635957	-1289.083000	1787.507813	153.067612
29683.635957	-1289.083000	1786.503906	-44.003231
29683.635957	-1289.083000	1785.500000	66.034363
29683.635957	-1289.083000	1784.496094	-111.971725
29683.635957	-1289.083000	1783.491211	-32.962997
29683.635957	-1289.083000	1782.486328	107.835968
29683.635957	-1289.083000	1781.481445	60.641743
29683.635957	-1289.083000	1780.476563	-36.508804
29683.635957	-1289.083000	1779.471680	120.751793
29683.635957	-1289.083000	1778.465820	154.302673
29683.635957	-1289.083000	1777.460938	-9.462778
29683.635957	-1289.083000	1776.455078	145.221252
29683.635957	-1289.083000	1775.449219	38.467888
29683.635957	-1289.083000	1774.442383	71.867104
29683.635957	-1289.083000	1773.436523	7.846263
29683.635957	-1289.083000	1772.429688	-103.677681
29683.635957	-1289.083000	1771.422852	53.072113
29683.635957	-1289.083000	1770.416016	74.430946
29683.635957	-1289.083000	1769.409180	-46.643810
29683.635957	-1289.083000	1768.402344	14.988806
29683.635957	-1289.083000	1767.394531	-8.841168
29683.635957	-1289.083000	1766.386719	17.108166
29683.635957	-1289.083000	1765.378906	171.063248
29683.635957	-1289.083000	1764.371094	4.852097
29683.635957	-1289.083000	1763.362305	104.154724
29683.635957	-1289.083000	1762.354492	158.353424
29683.635957	-1289.083000	1761.345703	30.038292
29683.635957	-1289.083000	1760.336914	65.201004
29683.635957	-1289.083000	1759.328125	-8.644359
29683.635957	-1289.083000	1758.318359	12.225533
29683.635957	-1289.083000	1757.308594	-19.040785
29683.635957	-1289.083000	1756.299805	18.320120
29683.635957	-1289.083000	1755.290039	13.023446
29683.635957	-1289.083000	1754.279297	-15.975386
29683.635957	-1289.083000	1753.269531	52.003990
29683.635957	-1289.083000	1752.258789	37.124828
29683.635957	-1289.083000	1751.249023	12.755152
29683.635957	-1289.083000	1750.238281	-16.375023
29683.635957	-1289.083000	1749.226563	-28.986025
29683.635957	-1289.083000	1748.215820	-81.811150
29683.635957	-1289.083000	1747.204102	26.042994
29683.635957	-1289.083000	1746.193359	6.229011
29683.635957	-1289.083000	1745.181641	142.295929
29683.635957	-1289.083000	1744.168945	129.471695
29683.635957	-1289.083000	1743.157227	-55.768093
29683.635957	-1289.083000	1742.144531	160.387604
29683.635957	-1289.083000	1741.132813	97.882790
29683.635957	-1289.083000	1740.120117	70.762276
29683.635957	-1289.083000	1739.106445	31.812630
29683.635957	-1289.083000	1738.093750	-30.749430
29683.635957	-1289.083000	1737.080078	-29.643465
29683.635957	-1289.083000	1736.067383	-120.545677
29683.635957	-1289.083000	1735.053711	-27.544395
29683.635957	-1289.083000	1734.040039	-64.272331
29683.635957	-1289.083000	1733.025391	-11.463417
29683.635957	-1289.083000	1732.011719	111.983810
29683.635957	-1289.083000	1730.997070	117.542274
29683.635957	-1289.083000	1729.982422	-91.296524
29683.635957	-1289.083000	1728.967773	-78.711670
29683.635957	-1289.083000	1727.952148	-35.561241
29683.635957	-1289.083000	1726.937500	-41.900627
29683.635957	-1289.083000	1725.921875	81.179298
29683.635957	-1289.083000	1724.906250	-42.923504
29683.635957	-1289.083000	1723.890625	117.681259
29683.635957	-1289.083000	1722.875000	10.011834
29683.635957	-1289.083000	1721.858398	-135.287598
29683.635957	-1289.083000	1720.841797	-33.658783
29683.635957	-1289.083000	1719.825195	63.192921
29683.635957	-1289.083000	1718.808594	-39.831902
29683.635957	-1289.083000	1717.791992	115.665390
29683.635957	-1289.083000	1716.774414	-27.350357
29683.635957	-1289.083000	1715.756836	-34.089233
29683.635957	-1289.083000	1714.739258	67.184341
29683.635957	-1289.083000	1713.721680	65.055550
29683.635957	-1289.083000	1712.704102	-45.112080
29683.635957	-1289.083000	1711.685547	-56.681484
29683.635957	-1289.083000	1710.667969	206.322906
29683.635957	-1289.083000	1709.649414	-28.283989
29683.635957	-1289.083000	1708.630859	77.352455
29683.635957	-1289.083000	1707.611328	98.466866
29683.635957	-1289.083000	1706.592773	-2.409249
29683.635957	-1289.083000	1705.573242	53.816628
29683.635957	-1289.083000	1704.553711	-33.016350
29683.635957	-1289.083000	1703.534180	-28.438168
29683.635957	-1289.083000	1702.513672	-14.523890
29683.635957	-1289.083000	1701.494141	-21.730938
29683.635957	-1289.083000	1700.473633	-89.876740
29683.635957	-1289.083000	1699.453125	31.680281
29683.635957	-1289.083000	1698.432617	-73.978996
29683.635957	-1289.083000	1697.412109	5.323491
29683.635957	-1289.083000	1696.390625	16.680008
29683.635957	-1289.083000	1695.369141	74.806984
29683.635957	-1289.083000	1694.347656	-96.421722
29683.635957	-1289.083000	1693.326172	-33.677151
29683.635957	-1289.083000	1692.304688	248.872589
29683.635957	-1289.083000	1691.282227	-55.677429
29683.635957	-1289.083000	1690.260742	205.667236
29683.635957	-1289.083000	1689.238281	130.267303
29683.635957	-1289.083000	1688.214844	148.349136
29683.635957	-1289.083000	1687.192383	63.586025
29683.635957	-1289.083000	1686.168945	-60.891903
29683.635957	-1289.083000	1685.146484	200.057999
29683.635957	-1289.083000	1684.123047	203.990067
29683.635957	-1289.083000	1683.099609	63.131355
29683.635957	-1289.083000	1682.075195	-5.336303
29683.635957	-1289.083000	1681.051758	38.231403
29683.635957	-1289.083000	1680.027344	32.749008
29683.635957	-1289.083000	1679.002930	57.573059
29683.635957	-1289.083000	1677.978516	243.314804
29683.635957	-1289.083000	1676.953125	88.457733
29683.635957	-1289.083000	1675.928711	78.207436
29683.635957	-1289.083000	1674.903320	156.522202
29683.635957	-1289.083000	1673.877930	118.242096
29683.635957	-1289.083000	1672.852539	96.265991
29683.635957	-1289.083000	1671.826172	132.520645
29683.635957	-1289.083000	1670.800781	24.314907
29683.635957	-1289.083000	1669.774414	144.370544
29683.635957	-1289.083000	1668.748047	159.572662
29683.635957	-1289.083000	1667.721680	228.295258
29683.635957	-1289.083000	1666.694336	127.045090
29683.635957	-1289.083000	1665.667969	256.215179
29683.635957	-1289.083000	1664.640625	136.344528
29683.635957	-1289.083000	1663.613281	190.977524
29683.635957	-1289.083000	1662.585938	126.949577
29683.635957	-1289.083000	1661.557617	74.551117
29683.635957	-1289.083000	1660.530273	177.934586
29683.635957	-1289.083000	1659.501953	248.712097
29683.635957	-1289.083000	1658.473633	10.340734
29683.635957	-1289.083000	1657.444336	150.795425
29683.635957	-1289.083000	1656.416016	302.800049
29683.635957	-1289.083000	1655.386719	192.255676
29683.635957	-1289.083000	1654.358398	23.685549
29683.635957	-1289.083000	1653.328125	205.756592
29683.635957	-1289.083000	1652.298828	276.320404
29683.635957	-1289.083000	1651.269531	242.400253
29683.635957	-1289.083000	1650.239258	234.001266
29683.635957	-1289.083000	1649.208984	74.789162
29683.635957	-1289.083000	1648.178711	335.475372
29683.635957	-1289.083000	1647.148438	336.303040
29683.635957	-1289.083000	1646.117188	244.366165
29683.635957	-1289.083000	1645.086914	423.695038
29683.635957	-1289.083000	1644.055664	350.298401
29683.635957	-1289.083000	1643.024414	344.123810
29683.635957	-1289.083000	1641.992188	141.000046
29683.635957	-1289.083000	1640.960938	287.736298
29683.635957	-1289.083000	1639.928711	290.810516
29683.635957	-1289.083000	1638.896484	530.062866
29683.635957	-1289.083000	1637.864258	188.121201
29683.635957	-1289.083000	1636.832031	452.747314
29683.635957	-1289.083000	1635.798828	446.497070
29683.635957	-1289.083000	1634.766602	238.949707
29683.635957	-1289.083000	1633.733398	276.685150
29683.635957	-1289.083000	1632.699219	409.223450
29683.635957	-1289.083000	1631.666016	458.463684
29683.635957	-1289.083000	1630.632813	433.698029
29683.635957	-1289.083000	1629.598633	288.734314
29683.635957	-1289.083000	1628.564453	407.286713
29683.635957	-1289.083000	1627.530273	437.987091
29683.635957	-1289.083000	1626.495117	343.919128
29683.635957	-1289.083000	1625.460938	508.580566
29683.635957	-1289.083000	1624.425781	342.945862
29683.635957	-1289.083000	1623.390625	489.066650
29683.635957	-1289.083000	1622.355469	535.871155
29683.635957	-1289.083000	1621.319336	488.027527
29683.635957	-1289.083000	1620.284180	608.655090
29683.635957	-1289.083000	1619.248047	491.607758
29683.635957	-1289.083000	1618.211914	529.149963
29683.635957	-1289.083000	1617.174805	432.919159
29683.635957	-1289.083000	1616.138672	555.774353
29683.635957	-1289.083000	1615.101563	600.202332
29683.635957	-1289.083000	1614.065430	504.029755
29683.635957	-1289.083000	1613.027344	617.585449
29683.635957	-1289.083000	1611.990234	645.862488
29683.635957	-1289.083000	1610.953125	455.307373
29683.635957	-1289.083000	1609.915039	651.730835
29683.635957	-1289.083000	1608.876953	654.670837
29683.635957	-1289.083000	1607.838867	567.835388
29683.635957	-1289.083000	1606.800781	750.334351
29683.635957	-1289.083000	1605.761719	679.633789
29683.635957	-1289.083000	1604.723633	698.703491
29683.635957	-1289.083000	1603.684570	717.770508
29683.635957	-1289.083000	1602.644531	752.934021
29683.635957	-1289.083000	1601.605469	634.038635
29683.635957	-1289.083000	1600.566406	745.096436
29683.635957	-1289.083000	1599.526367	911.281494
29683.635957	-1289.083000	1598.486328	693.638062
29683.635957	-1289.083000	1597.446289	839.113770
29683.635957	-1289.083000	1596.405273	541.189087
29683.635957	-1289.083000	1595.365234	656.807068
29683.635957	-1289.083000	1594.324219	620.835632
29683.635957	-1289.083000	1593.283203	757.078674
29683.635957	-1289.083000	1592.242188	787.696289
29683.635957	-1289.083000	1591.200195	790.774414
29683.635957	-1289.083000	1590.159180	745.687134
29683.635957	-1289.083000	1589.117188	409.288361
