#X		#Y		#Wave		#Intensity
-246.560638	5296.310000	1999.946289	-41.177288
-246.560638	5296.310000	1998.981445	262.551331
-246.560638	5296.310000	1998.017578	177.485214
-246.560638	5296.310000	1997.052734	285.752533
-246.560638	5296.310000	1996.088867	334.532227
-246.560638	5296.310000	1995.124023	29.064766
-246.560638	5296.310000	1994.159180	85.327118
-246.560638	5296.310000	1993.193359	144.057541
-246.560638	5296.310000	1992.228516	-12.612089
-246.560638	5296.310000	1991.262695	63.472759
-246.560638	5296.310000	1990.296875	171.719589
-246.560638	5296.310000	1989.331055	190.864304
-246.560638	5296.310000	1988.365234	-193.240036
-246.560638	5296.310000	1987.398438	147.554962
-246.560638	5296.310000	1986.432617	213.736267
-246.560638	5296.310000	1985.465820	-29.167480
-246.560638	5296.310000	1984.499023	-93.966782
-246.560638	5296.310000	1983.532227	234.276276
-246.560638	5296.310000	1982.565430	11.334557
-246.560638	5296.310000	1981.597656	240.642563
-246.560638	5296.310000	1980.629883	86.989212
-246.560638	5296.310000	1979.662109	200.159042
-246.560638	5296.310000	1978.694336	66.369148
-246.560638	5296.310000	1977.726563	135.104218
-246.560638	5296.310000	1976.758789	171.745392
-246.560638	5296.310000	1975.790039	176.308258
-246.560638	5296.310000	1974.821289	84.658623
-246.560638	5296.310000	1973.852539	76.947121
-246.560638	5296.310000	1972.883789	-2.270381
-246.560638	5296.310000	1971.915039	128.189896
-246.560638	5296.310000	1970.945313	-76.714989
-246.560638	5296.310000	1969.975586	-168.117493
-246.560638	5296.310000	1969.005859	31.385845
-246.560638	5296.310000	1968.036133	-94.454842
-246.560638	5296.310000	1967.066406	173.998260
-246.560638	5296.310000	1966.096680	237.911240
-246.560638	5296.310000	1965.125977	85.080078
-246.560638	5296.310000	1964.155273	52.995136
-246.560638	5296.310000	1963.184570	171.132050
-246.560638	5296.310000	1962.213867	50.474251
-246.560638	5296.310000	1961.242188	163.691772
-246.560638	5296.310000	1960.271484	75.119438
-246.560638	5296.310000	1959.299805	82.551392
-246.560638	5296.310000	1958.328125	82.626183
-246.560638	5296.310000	1957.356445	213.069382
-246.560638	5296.310000	1956.384766	82.850670
-246.560638	5296.310000	1955.412109	164.124527
-246.560638	5296.310000	1954.439453	-111.008705
-246.560638	5296.310000	1953.467773	-41.963497
-246.560638	5296.310000	1952.495117	-71.203217
-246.560638	5296.310000	1951.521484	194.378571
-246.560638	5296.310000	1950.548828	-117.298065
-246.560638	5296.310000	1949.575195	45.105404
-246.560638	5296.310000	1948.601563	109.264259
-246.560638	5296.310000	1947.627930	4.046516
-246.560638	5296.310000	1946.654297	144.320190
-246.560638	5296.310000	1945.680664	156.966934
-246.560638	5296.310000	1944.706055	130.376785
-246.560638	5296.310000	1943.732422	130.804352
-246.560638	5296.310000	1942.757813	42.963428
-246.560638	5296.310000	1941.783203	153.791763
-246.560638	5296.310000	1940.807617	12.089581
-246.560638	5296.310000	1939.833008	54.297791
-246.560638	5296.310000	1938.857422	-170.608902
-246.560638	5296.310000	1937.881836	-59.734871
-246.560638	5296.310000	1936.906250	-0.323548
-246.560638	5296.310000	1935.930664	235.434402
-246.560638	5296.310000	1934.955078	96.458626
-246.560638	5296.310000	1933.978516	204.837570
-246.560638	5296.310000	1933.001953	-73.571411
-246.560638	5296.310000	1932.025391	-16.554718
-246.560638	5296.310000	1931.048828	126.105125
-246.560638	5296.310000	1930.072266	50.990841
-246.560638	5296.310000	1929.094727	34.629410
-246.560638	5296.310000	1928.118164	-55.073082
-246.560638	5296.310000	1927.140625	-29.802586
-246.560638	5296.310000	1926.163086	19.925991
-246.560638	5296.310000	1925.184570	-37.895462
-246.560638	5296.310000	1924.207031	82.723915
-246.560638	5296.310000	1923.228516	-43.464195
-246.560638	5296.310000	1922.250000	-132.942566
-246.560638	5296.310000	1921.271484	21.872433
-246.560638	5296.310000	1920.292969	8.150388
-246.560638	5296.310000	1919.314453	35.957352
-246.560638	5296.310000	1918.334961	-9.463707
-246.560638	5296.310000	1917.355469	94.025406
-246.560638	5296.310000	1916.375977	82.804199
-246.560638	5296.310000	1915.396484	56.966080
-246.560638	5296.310000	1914.416992	-66.418053
-246.560638	5296.310000	1913.436523	39.503246
-246.560638	5296.310000	1912.457031	162.469360
-246.560638	5296.310000	1911.476563	48.928661
-246.560638	5296.310000	1910.496094	-6.057956
-246.560638	5296.310000	1909.515625	16.972017
-246.560638	5296.310000	1908.534180	88.735306
-246.560638	5296.310000	1907.552734	72.785919
-246.560638	5296.310000	1906.572266	42.243248
-246.560638	5296.310000	1905.590820	-90.553566
-246.560638	5296.310000	1904.608398	-152.684967
-246.560638	5296.310000	1903.626953	-37.081738
-246.560638	5296.310000	1902.644531	124.729103
-246.560638	5296.310000	1901.663086	-178.273117
-246.560638	5296.310000	1900.680664	-65.132965
-246.560638	5296.310000	1899.698242	-212.294571
-246.560638	5296.310000	1898.714844	80.791901
-246.560638	5296.310000	1897.732422	74.704285
-246.560638	5296.310000	1896.749023	168.298523
-246.560638	5296.310000	1895.765625	-34.667431
-246.560638	5296.310000	1894.782227	29.765972
-246.560638	5296.310000	1893.798828	203.518250
-246.560638	5296.310000	1892.814453	-106.207397
-246.560638	5296.310000	1891.831055	128.238052
-246.560638	5296.310000	1890.846680	110.054405
-246.560638	5296.310000	1889.862305	-10.087385
-246.560638	5296.310000	1888.877930	39.740025
-246.560638	5296.310000	1887.892578	-26.941772
-246.560638	5296.310000	1886.908203	61.702705
-246.560638	5296.310000	1885.922852	162.447525
-246.560638	5296.310000	1884.937500	27.874771
-246.560638	5296.310000	1883.952148	211.049469
-246.560638	5296.310000	1882.965820	154.112381
-246.560638	5296.310000	1881.980469	213.563995
-246.560638	5296.310000	1880.994141	-25.131165
-246.560638	5296.310000	1880.007813	99.763283
-246.560638	5296.310000	1879.021484	-196.967926
-246.560638	5296.310000	1878.035156	-57.550743
-246.560638	5296.310000	1877.047852	-12.644217
-246.560638	5296.310000	1876.061523	-188.111160
-246.560638	5296.310000	1875.074219	2.065721
-246.560638	5296.310000	1874.086914	-61.992428
-246.560638	5296.310000	1873.098633	70.002632
-246.560638	5296.310000	1872.111328	73.703712
-246.560638	5296.310000	1871.123047	-31.465626
-246.560638	5296.310000	1870.135742	39.975559
-246.560638	5296.310000	1869.147461	4.978174
-246.560638	5296.310000	1868.158203	-85.621246
-246.560638	5296.310000	1867.169922	-19.056602
-246.560638	5296.310000	1866.180664	8.806616
-246.560638	5296.310000	1865.192383	-190.496918
-246.560638	5296.310000	1864.203125	124.890930
-246.560638	5296.310000	1863.213867	-158.917480
-246.560638	5296.310000	1862.223633	-80.351662
-246.560638	5296.310000	1861.234375	15.084032
-246.560638	5296.310000	1860.244141	40.462551
-246.560638	5296.310000	1859.253906	3.065245
-246.560638	5296.310000	1858.263672	59.796055
-246.560638	5296.310000	1857.273438	82.718102
-246.560638	5296.310000	1856.282227	-39.123539
-246.560638	5296.310000	1855.291992	51.328384
-246.560638	5296.310000	1854.300781	93.506149
-246.560638	5296.310000	1853.309570	-18.649664
-246.560638	5296.310000	1852.317383	11.452864
-246.560638	5296.310000	1851.326172	297.015594
-246.560638	5296.310000	1850.333984	134.251038
-246.560638	5296.310000	1849.342773	-81.466064
-246.560638	5296.310000	1848.350586	109.978142
-246.560638	5296.310000	1847.357422	96.626266
-246.560638	5296.310000	1846.365234	88.086540
-246.560638	5296.310000	1845.372070	62.684658
-246.560638	5296.310000	1844.379883	32.467377
-246.560638	5296.310000	1843.386719	57.600204
-246.560638	5296.310000	1842.393555	205.421326
-246.560638	5296.310000	1841.399414	-22.107306
-246.560638	5296.310000	1840.406250	17.413708
-246.560638	5296.310000	1839.412109	169.930084
-246.560638	5296.310000	1838.417969	173.308365
-246.560638	5296.310000	1837.423828	289.651794
-246.560638	5296.310000	1836.429688	256.927887
-246.560638	5296.310000	1835.434570	-25.704205
-246.560638	5296.310000	1834.440430	-22.348806
-246.560638	5296.310000	1833.445313	153.936737
-246.560638	5296.310000	1832.450195	75.572792
-246.560638	5296.310000	1831.454102	9.226321
-246.560638	5296.310000	1830.458984	144.547974
-246.560638	5296.310000	1829.462891	18.177589
-246.560638	5296.310000	1828.466797	134.214310
-246.560638	5296.310000	1827.470703	36.652050
-246.560638	5296.310000	1826.474609	-116.063148
-246.560638	5296.310000	1825.478516	268.506012
-246.560638	5296.310000	1824.481445	166.125015
-246.560638	5296.310000	1823.484375	238.784729
-246.560638	5296.310000	1822.487305	172.368713
-246.560638	5296.310000	1821.490234	62.822094
-246.560638	5296.310000	1820.493164	-1.174693
-246.560638	5296.310000	1819.495117	-17.253632
-246.560638	5296.310000	1818.498047	160.672867
-246.560638	5296.310000	1817.500000	223.560745
-246.560638	5296.310000	1816.500977	312.741760
-246.560638	5296.310000	1815.502930	236.694305
-246.560638	5296.310000	1814.504883	55.344929
-246.560638	5296.310000	1813.505859	8.048869
-246.560638	5296.310000	1812.506836	46.883141
-246.560638	5296.310000	1811.507813	85.683510
-246.560638	5296.310000	1810.508789	224.897095
-246.560638	5296.310000	1809.508789	-42.464687
-246.560638	5296.310000	1808.508789	8.221170
-246.560638	5296.310000	1807.508789	252.480881
-246.560638	5296.310000	1806.508789	257.644409
-246.560638	5296.310000	1805.508789	451.545563
-246.560638	5296.310000	1804.508789	310.902954
-246.560638	5296.310000	1803.507813	184.622528
-246.560638	5296.310000	1802.506836	75.084206
-246.560638	5296.310000	1801.505859	204.322067
-246.560638	5296.310000	1800.504883	37.488327
-246.560638	5296.310000	1799.502930	80.719292
-246.560638	5296.310000	1798.501953	33.239109
-246.560638	5296.310000	1797.500000	64.482567
-246.560638	5296.310000	1796.498047	47.987011
-246.560638	5296.310000	1795.496094	-9.067964
-246.560638	5296.310000	1794.493164	172.316162
-246.560638	5296.310000	1793.491211	-37.357914
-246.560638	5296.310000	1792.488281	-58.679989
-246.560638	5296.310000	1791.485352	122.542664
-246.560638	5296.310000	1790.482422	248.875412
-246.560638	5296.310000	1789.478516	20.193666
-246.560638	5296.310000	1788.475586	408.439789
-246.560638	5296.310000	1787.471680	165.481812
-246.560638	5296.310000	1786.467773	163.054565
-246.560638	5296.310000	1785.463867	222.493988
-246.560638	5296.310000	1784.459961	248.569550
-246.560638	5296.310000	1783.455078	69.977852
-246.560638	5296.310000	1782.450195	-96.674088
-246.560638	5296.310000	1781.445313	72.088318
-246.560638	5296.310000	1780.440430	117.103920
-246.560638	5296.310000	1779.435547	169.211578
-246.560638	5296.310000	1778.429688	166.598038
-246.560638	5296.310000	1777.424805	109.300903
-246.560638	5296.310000	1776.418945	280.122375
-246.560638	5296.310000	1775.413086	-31.436798
-246.560638	5296.310000	1774.406250	27.654793
-246.560638	5296.310000	1773.400391	143.702515
-246.560638	5296.310000	1772.393555	41.228157
-246.560638	5296.310000	1771.386719	119.195450
-246.560638	5296.310000	1770.379883	23.838806
-246.560638	5296.310000	1769.373047	85.122124
-246.560638	5296.310000	1768.365234	-0.749451
-246.560638	5296.310000	1767.358398	195.685974
-246.560638	5296.310000	1766.350586	-46.757092
-246.560638	5296.310000	1765.342773	85.537605
-246.560638	5296.310000	1764.334961	4.380674
-246.560638	5296.310000	1763.326172	-152.624390
-246.560638	5296.310000	1762.318359	98.046036
-246.560638	5296.310000	1761.309570	59.512962
-246.560638	5296.310000	1760.300781	106.258949
-246.560638	5296.310000	1759.291016	100.851303
-246.560638	5296.310000	1758.282227	112.003296
-246.560638	5296.310000	1757.272461	104.184402
-246.560638	5296.310000	1756.262695	271.523773
-246.560638	5296.310000	1755.252930	116.889694
-246.560638	5296.310000	1754.243164	130.304688
-246.560638	5296.310000	1753.233398	278.549164
-246.560638	5296.310000	1752.222656	123.932487
-246.560638	5296.310000	1751.211914	156.189392
-246.560638	5296.310000	1750.201172	167.130569
-246.560638	5296.310000	1749.190430	-3.990947
-246.560638	5296.310000	1748.179688	144.025162
-246.560638	5296.310000	1747.167969	147.804611
-246.560638	5296.310000	1746.156250	23.971912
-246.560638	5296.310000	1745.144531	23.005714
-246.560638	5296.310000	1744.132813	90.511627
-246.560638	5296.310000	1743.121094	-120.675247
-246.560638	5296.310000	1742.108398	29.421328
-246.560638	5296.310000	1741.095703	-77.855286
-246.560638	5296.310000	1740.083008	-81.269577
-246.560638	5296.310000	1739.070313	-287.629974
-246.560638	5296.310000	1738.057617	79.344910
-246.560638	5296.310000	1737.043945	106.501373
-246.560638	5296.310000	1736.030273	91.178009
-246.560638	5296.310000	1735.016602	191.374023
-246.560638	5296.310000	1734.002930	-76.235626
-246.560638	5296.310000	1732.989258	172.399063
-246.560638	5296.310000	1731.974609	-88.077843
-246.560638	5296.310000	1730.959961	14.350075
-246.560638	5296.310000	1729.945313	166.186920
-246.560638	5296.310000	1728.930664	-75.356171
-246.560638	5296.310000	1727.916016	-166.127640
-246.560638	5296.310000	1726.900391	-181.551834
-246.560638	5296.310000	1725.885742	-60.466957
-246.560638	5296.310000	1724.870117	51.136467
-246.560638	5296.310000	1723.853516	-154.960159
-246.560638	5296.310000	1722.837891	-29.301928
-246.560638	5296.310000	1721.822266	44.547119
-246.560638	5296.310000	1720.805664	120.698685
-246.560638	5296.310000	1719.789063	41.634262
-246.560638	5296.310000	1718.772461	-60.923271
-246.560638	5296.310000	1717.754883	-316.221619
-246.560638	5296.310000	1716.738281	-89.745163
-246.560638	5296.310000	1715.720703	-23.125286
-246.560638	5296.310000	1714.703125	-48.149952
-246.560638	5296.310000	1713.685547	-108.406815
-246.560638	5296.310000	1712.667969	-32.476673
-246.560638	5296.310000	1711.649414	-50.493046
-246.560638	5296.310000	1710.630859	81.690742
-246.560638	5296.310000	1709.612305	141.065186
-246.560638	5296.310000	1708.593750	99.520187
-246.560638	5296.310000	1707.575195	205.753265
-246.560638	5296.310000	1706.555664	-35.163078
-246.560638	5296.310000	1705.536133	-43.870178
-246.560638	5296.310000	1704.516602	-144.015228
-246.560638	5296.310000	1703.497070	-89.440742
-246.560638	5296.310000	1702.477539	65.866257
-246.560638	5296.310000	1701.457031	-92.858696
-246.560638	5296.310000	1700.437500	205.256897
-246.560638	5296.310000	1699.416992	187.064713
-246.560638	5296.310000	1698.395508	86.906799
-246.560638	5296.310000	1697.375000	-174.760315
-246.560638	5296.310000	1696.354492	-136.727448
-246.560638	5296.310000	1695.333008	-72.981750
-246.560638	5296.310000	1694.311523	51.563110
-246.560638	5296.310000	1693.290039	225.176956
-246.560638	5296.310000	1692.267578	-52.699635
-246.560638	5296.310000	1691.246094	53.031578
-246.560638	5296.310000	1690.223633	-33.009300
-246.560638	5296.310000	1689.201172	63.304153
-246.560638	5296.310000	1688.178711	-74.139084
-246.560638	5296.310000	1687.155273	47.826134
-246.560638	5296.310000	1686.132813	-47.528034
-246.560638	5296.310000	1685.109375	-89.135254
-246.560638	5296.310000	1684.085938	46.750088
-246.560638	5296.310000	1683.062500	-95.273071
-246.560638	5296.310000	1682.039063	49.883465
-246.560638	5296.310000	1681.014648	-40.757740
-246.560638	5296.310000	1679.990234	-108.035034
-246.560638	5296.310000	1678.965820	151.336075
-246.560638	5296.310000	1677.941406	-25.598204
-246.560638	5296.310000	1676.916992	40.075542
-246.560638	5296.310000	1675.891602	66.074196
-246.560638	5296.310000	1674.866211	26.783060
-246.560638	5296.310000	1673.840820	-103.400070
-246.560638	5296.310000	1672.815430	97.375702
-246.560638	5296.310000	1671.790039	-21.129532
-246.560638	5296.310000	1670.763672	-79.031891
-246.560638	5296.310000	1669.737305	37.762928
-246.560638	5296.310000	1668.710938	147.522842
-246.560638	5296.310000	1667.684570	-1.184452
-246.560638	5296.310000	1666.658203	141.121857
-246.560638	5296.310000	1665.630859	218.205521
-246.560638	5296.310000	1664.603516	-35.144806
-246.560638	5296.310000	1663.576172	107.076103
-246.560638	5296.310000	1662.548828	-57.774982
-246.560638	5296.310000	1661.520508	-29.556360
-246.560638	5296.310000	1660.493164	-10.645153
-246.560638	5296.310000	1659.464844	8.254400
-246.560638	5296.310000	1658.436523	15.525683
-246.560638	5296.310000	1657.408203	-42.266514
-246.560638	5296.310000	1656.378906	-41.959969
-246.560638	5296.310000	1655.350586	81.455872
-246.560638	5296.310000	1654.321289	67.807068
-246.560638	5296.310000	1653.291992	19.337357
-246.560638	5296.310000	1652.261719	-50.007828
-246.560638	5296.310000	1651.232422	6.010554
-246.560638	5296.310000	1650.202148	231.401230
-246.560638	5296.310000	1649.171875	134.223312
-246.560638	5296.310000	1648.141602	39.405891
-246.560638	5296.310000	1647.111328	139.436584
-246.560638	5296.310000	1646.080078	86.394669
-246.560638	5296.310000	1645.049805	109.884354
-246.560638	5296.310000	1644.018555	-54.375618
-246.560638	5296.310000	1642.987305	247.219757
-246.560638	5296.310000	1641.955078	226.650192
-246.560638	5296.310000	1640.923828	189.884064
-246.560638	5296.310000	1639.891602	65.126526
-246.560638	5296.310000	1638.859375	239.130005
-246.560638	5296.310000	1637.827148	230.180023
-246.560638	5296.310000	1636.794922	184.205597
-246.560638	5296.310000	1635.761719	145.195282
-246.560638	5296.310000	1634.729492	46.054874
-246.560638	5296.310000	1633.696289	97.321640
-246.560638	5296.310000	1632.662109	125.445175
-246.560638	5296.310000	1631.628906	278.440613
-246.560638	5296.310000	1630.594727	193.249542
-246.560638	5296.310000	1629.561523	126.598015
-246.560638	5296.310000	1628.527344	129.310501
-246.560638	5296.310000	1627.493164	201.349304
-246.560638	5296.310000	1626.458008	150.929611
-246.560638	5296.310000	1625.423828	190.623016
-246.560638	5296.310000	1624.388672	214.142807
-246.560638	5296.310000	1623.353516	108.372101
-246.560638	5296.310000	1622.318359	99.606155
-246.560638	5296.310000	1621.282227	35.461597
-246.560638	5296.310000	1620.247070	86.732552
-246.560638	5296.310000	1619.210938	147.221283
-246.560638	5296.310000	1618.174805	48.545227
-246.560638	5296.310000	1617.137695	351.184357
-246.560638	5296.310000	1616.101563	128.029327
-246.560638	5296.310000	1615.064453	310.691162
-246.560638	5296.310000	1614.027344	350.400452
-246.560638	5296.310000	1612.990234	51.373413
-246.560638	5296.310000	1611.953125	63.501926
-246.560638	5296.310000	1610.916016	87.159370
-246.560638	5296.310000	1609.877930	433.236938
-246.560638	5296.310000	1608.839844	166.722061
-246.560638	5296.310000	1607.801758	397.577911
-246.560638	5296.310000	1606.763672	363.673004
-246.560638	5296.310000	1605.724609	217.037247
-246.560638	5296.310000	1604.685547	164.806442
-246.560638	5296.310000	1603.646484	296.638123
-246.560638	5296.310000	1602.607422	329.542328
-246.560638	5296.310000	1601.568359	539.506714
-246.560638	5296.310000	1600.528320	75.813263
-246.560638	5296.310000	1599.489258	368.529785
-246.560638	5296.310000	1598.449219	302.651642
-246.560638	5296.310000	1597.408203	402.243622
-246.560638	5296.310000	1596.368164	697.078491
-246.560638	5296.310000	1595.327148	245.387115
-246.560638	5296.310000	1594.287109	540.179443
-246.560638	5296.310000	1593.246094	568.560364
-246.560638	5296.310000	1592.204102	408.729462
-246.560638	5296.310000	1591.163086	361.436859
-246.560638	5296.310000	1590.121094	502.327606
-246.560638	5296.310000	1589.079102	301.377960
-246.560638	5296.310000	1588.037109	320.712280
-246.560638	5296.310000	1586.995117	333.182343
-246.560638	5296.310000	1585.953125	143.916397
-246.560638	5296.310000	1584.910156	387.974091
-246.560638	5296.310000	1583.867188	317.987793
-246.560638	5296.310000	1582.824219	500.098450
-246.560638	5296.310000	1581.781250	530.965454
-246.560638	5296.310000	1580.737305	412.964966
-246.560638	5296.310000	1579.693359	482.813263
-246.560638	5296.310000	1578.649414	502.290894
-246.560638	5296.310000	1577.605469	647.685242
-246.560638	5296.310000	1576.561523	635.134216
-246.560638	5296.310000	1575.516602	629.475098
-246.560638	5296.310000	1574.472656	500.311584
-246.560638	5296.310000	1573.427734	597.662598
-246.560638	5296.310000	1572.381836	683.566528
