#X		#Y		#Wave		#Intensity
107.725000	5617.041667	1999.946289	-37.954262
107.725000	5617.041667	1998.981445	125.258018
107.725000	5617.041667	1998.017578	94.331810
107.725000	5617.041667	1997.052734	18.870987
107.725000	5617.041667	1996.088867	52.518566
107.725000	5617.041667	1995.124023	-17.830280
107.725000	5617.041667	1994.159180	-28.652521
107.725000	5617.041667	1993.193359	54.682903
107.725000	5617.041667	1992.228516	78.627159
107.725000	5617.041667	1991.262695	3.601839
107.725000	5617.041667	1990.296875	22.704988
107.725000	5617.041667	1989.331055	86.394447
107.725000	5617.041667	1988.365234	-84.915382
107.725000	5617.041667	1987.398438	55.551018
107.725000	5617.041667	1986.432617	8.065026
107.725000	5617.041667	1985.465820	-61.609707
107.725000	5617.041667	1984.499023	-106.488678
107.725000	5617.041667	1983.532227	-109.285339
107.725000	5617.041667	1982.565430	65.893303
107.725000	5617.041667	1981.597656	124.924202
107.725000	5617.041667	1980.629883	70.343002
107.725000	5617.041667	1979.662109	124.498779
107.725000	5617.041667	1978.694336	32.982834
107.725000	5617.041667	1977.726563	64.988518
107.725000	5617.041667	1976.758789	22.968468
107.725000	5617.041667	1975.790039	18.022156
107.725000	5617.041667	1974.821289	99.480423
107.725000	5617.041667	1973.852539	-60.829536
107.725000	5617.041667	1972.883789	109.486855
107.725000	5617.041667	1971.915039	72.616203
107.725000	5617.041667	1970.945313	200.996094
107.725000	5617.041667	1969.975586	40.926468
107.725000	5617.041667	1969.005859	4.190155
107.725000	5617.041667	1968.036133	16.786283
107.725000	5617.041667	1967.066406	115.646133
107.725000	5617.041667	1966.096680	113.498833
107.725000	5617.041667	1965.125977	96.603539
107.725000	5617.041667	1964.155273	50.192680
107.725000	5617.041667	1963.184570	-23.254580
107.725000	5617.041667	1962.213867	85.511452
107.725000	5617.041667	1961.242188	19.521067
107.725000	5617.041667	1960.271484	-78.406334
107.725000	5617.041667	1959.299805	-53.261555
107.725000	5617.041667	1958.328125	75.209190
107.725000	5617.041667	1957.356445	-84.084190
107.725000	5617.041667	1956.384766	56.685673
107.725000	5617.041667	1955.412109	49.919907
107.725000	5617.041667	1954.439453	21.057297
107.725000	5617.041667	1953.467773	53.664494
107.725000	5617.041667	1952.495117	39.595322
107.725000	5617.041667	1951.521484	23.093782
107.725000	5617.041667	1950.548828	9.074114
107.725000	5617.041667	1949.575195	98.214516
107.725000	5617.041667	1948.601563	94.042084
107.725000	5617.041667	1947.627930	109.526375
107.725000	5617.041667	1946.654297	-2.602287
107.725000	5617.041667	1945.680664	-38.604313
107.725000	5617.041667	1944.706055	-116.286293
107.725000	5617.041667	1943.732422	-32.031040
107.725000	5617.041667	1942.757813	155.209564
107.725000	5617.041667	1941.783203	70.220871
107.725000	5617.041667	1940.807617	36.758381
107.725000	5617.041667	1939.833008	-26.092051
107.725000	5617.041667	1938.857422	18.920481
107.725000	5617.041667	1937.881836	63.926994
107.725000	5617.041667	1936.906250	202.016769
107.725000	5617.041667	1935.930664	33.906059
107.725000	5617.041667	1934.955078	-77.809494
107.725000	5617.041667	1933.978516	-10.744855
107.725000	5617.041667	1933.001953	75.885773
107.725000	5617.041667	1932.025391	10.750804
107.725000	5617.041667	1931.048828	-59.246460
107.725000	5617.041667	1930.072266	-28.903402
107.725000	5617.041667	1929.094727	104.169487
107.725000	5617.041667	1928.118164	-24.482126
107.725000	5617.041667	1927.140625	66.983803
107.725000	5617.041667	1926.163086	60.632355
107.725000	5617.041667	1925.184570	-82.590767
107.725000	5617.041667	1924.207031	55.280025
107.725000	5617.041667	1923.228516	48.945721
107.725000	5617.041667	1922.250000	84.145721
107.725000	5617.041667	1921.271484	63.159367
107.725000	5617.041667	1920.292969	73.928612
107.725000	5617.041667	1919.314453	-120.391701
107.725000	5617.041667	1918.334961	-94.943199
107.725000	5617.041667	1917.355469	86.695671
107.725000	5617.041667	1916.375977	-2.589266
107.725000	5617.041667	1915.396484	22.824629
107.725000	5617.041667	1914.416992	36.032665
107.725000	5617.041667	1913.436523	39.479191
107.725000	5617.041667	1912.457031	-35.102612
107.725000	5617.041667	1911.476563	95.123627
107.725000	5617.041667	1910.496094	40.055084
107.725000	5617.041667	1909.515625	36.181133
107.725000	5617.041667	1908.534180	5.503767
107.725000	5617.041667	1907.552734	-59.269760
107.725000	5617.041667	1906.572266	2.629834
107.725000	5617.041667	1905.590820	-1.246718
107.725000	5617.041667	1904.608398	-36.777691
107.725000	5617.041667	1903.626953	29.939137
107.725000	5617.041667	1902.644531	47.950100
107.725000	5617.041667	1901.663086	31.883516
107.725000	5617.041667	1900.680664	-62.034592
107.725000	5617.041667	1899.698242	38.670189
107.725000	5617.041667	1898.714844	56.643909
107.725000	5617.041667	1897.732422	-110.188667
107.725000	5617.041667	1896.749023	-53.309547
107.725000	5617.041667	1895.765625	8.403185
107.725000	5617.041667	1894.782227	145.419952
107.725000	5617.041667	1893.798828	5.393795
107.725000	5617.041667	1892.814453	-5.838810
107.725000	5617.041667	1891.831055	101.936073
107.725000	5617.041667	1890.846680	29.965384
107.725000	5617.041667	1889.862305	-20.135719
107.725000	5617.041667	1888.877930	-55.662415
107.725000	5617.041667	1887.892578	90.836998
107.725000	5617.041667	1886.908203	-24.789669
107.725000	5617.041667	1885.922852	116.778709
107.725000	5617.041667	1884.937500	-3.680555
107.725000	5617.041667	1883.952148	60.206829
107.725000	5617.041667	1882.965820	14.948190
107.725000	5617.041667	1881.980469	95.757195
107.725000	5617.041667	1880.994141	23.826466
107.725000	5617.041667	1880.007813	0.378217
107.725000	5617.041667	1879.021484	76.266251
107.725000	5617.041667	1878.035156	64.907356
107.725000	5617.041667	1877.047852	111.667229
107.725000	5617.041667	1876.061523	-13.527917
107.725000	5617.041667	1875.074219	105.837692
107.725000	5617.041667	1874.086914	183.997101
107.725000	5617.041667	1873.098633	-86.388626
107.725000	5617.041667	1872.111328	-61.480549
107.725000	5617.041667	1871.123047	-0.306932
107.725000	5617.041667	1870.135742	-57.688469
107.725000	5617.041667	1869.147461	-69.113899
107.725000	5617.041667	1868.158203	-34.609291
107.725000	5617.041667	1867.169922	38.549171
107.725000	5617.041667	1866.180664	109.248665
107.725000	5617.041667	1865.192383	32.501648
107.725000	5617.041667	1864.203125	-51.480042
107.725000	5617.041667	1863.213867	-14.662896
107.725000	5617.041667	1862.223633	-108.293152
107.725000	5617.041667	1861.234375	54.057781
107.725000	5617.041667	1860.244141	129.419525
107.725000	5617.041667	1859.253906	132.324188
107.725000	5617.041667	1858.263672	94.186691
107.725000	5617.041667	1857.273438	138.087006
107.725000	5617.041667	1856.282227	-1.390626
107.725000	5617.041667	1855.291992	165.493134
107.725000	5617.041667	1854.300781	88.733109
107.725000	5617.041667	1853.309570	-14.535483
107.725000	5617.041667	1852.317383	144.977646
107.725000	5617.041667	1851.326172	164.625717
107.725000	5617.041667	1850.333984	-15.757196
107.725000	5617.041667	1849.342773	3.883344
107.725000	5617.041667	1848.350586	23.499521
107.725000	5617.041667	1847.357422	-19.525978
107.725000	5617.041667	1846.365234	53.029858
107.725000	5617.041667	1845.372070	65.354477
107.725000	5617.041667	1844.379883	149.870163
107.725000	5617.041667	1843.386719	22.559750
107.725000	5617.041667	1842.393555	-20.504820
107.725000	5617.041667	1841.399414	234.729797
107.725000	5617.041667	1840.406250	174.771957
107.725000	5617.041667	1839.412109	172.533554
107.725000	5617.041667	1838.417969	105.363503
107.725000	5617.041667	1837.423828	47.817394
107.725000	5617.041667	1836.429688	16.713552
107.725000	5617.041667	1835.434570	124.973885
107.725000	5617.041667	1834.440430	110.651878
107.725000	5617.041667	1833.445313	96.316490
107.725000	5617.041667	1832.450195	127.600418
107.725000	5617.041667	1831.454102	125.238022
107.725000	5617.041667	1830.458984	168.474335
107.725000	5617.041667	1829.462891	74.863060
107.725000	5617.041667	1828.466797	43.664402
107.725000	5617.041667	1827.470703	50.849541
107.725000	5617.041667	1826.474609	43.621571
107.725000	5617.041667	1825.478516	9.996598
107.725000	5617.041667	1824.481445	48.305077
107.725000	5617.041667	1823.484375	-18.908508
107.725000	5617.041667	1822.487305	86.473999
107.725000	5617.041667	1821.490234	86.349556
107.725000	5617.041667	1820.493164	138.922760
107.725000	5617.041667	1819.495117	74.068436
107.725000	5617.041667	1818.498047	57.127724
107.725000	5617.041667	1817.500000	116.808281
107.725000	5617.041667	1816.500977	176.447479
107.725000	5617.041667	1815.502930	-5.734541
107.725000	5617.041667	1814.504883	113.708817
107.725000	5617.041667	1813.505859	-13.389702
107.725000	5617.041667	1812.506836	156.216751
107.725000	5617.041667	1811.507813	127.199066
107.725000	5617.041667	1810.508789	35.992840
107.725000	5617.041667	1809.508789	-86.283112
107.725000	5617.041667	1808.508789	159.642059
107.725000	5617.041667	1807.508789	23.012981
107.725000	5617.041667	1806.508789	-3.649295
107.725000	5617.041667	1805.508789	19.857889
107.725000	5617.041667	1804.508789	79.172752
107.725000	5617.041667	1803.507813	21.411613
107.725000	5617.041667	1802.506836	56.787785
107.725000	5617.041667	1801.505859	51.544964
107.725000	5617.041667	1800.504883	17.641689
107.725000	5617.041667	1799.502930	50.559456
107.725000	5617.041667	1798.501953	21.407661
107.725000	5617.041667	1797.500000	44.735176
107.725000	5617.041667	1796.498047	34.642635
107.725000	5617.041667	1795.496094	34.076870
107.725000	5617.041667	1794.493164	88.333755
107.725000	5617.041667	1793.491211	59.116615
107.725000	5617.041667	1792.488281	103.780807
107.725000	5617.041667	1791.485352	86.452446
107.725000	5617.041667	1790.482422	-14.277581
107.725000	5617.041667	1789.478516	99.406067
107.725000	5617.041667	1788.475586	-8.465982
107.725000	5617.041667	1787.471680	-44.878349
107.725000	5617.041667	1786.467773	99.647705
107.725000	5617.041667	1785.463867	65.576599
107.725000	5617.041667	1784.459961	71.960182
107.725000	5617.041667	1783.455078	-23.992739
107.725000	5617.041667	1782.450195	-10.491825
107.725000	5617.041667	1781.445313	52.937607
107.725000	5617.041667	1780.440430	113.948479
107.725000	5617.041667	1779.435547	82.192719
107.725000	5617.041667	1778.429688	-92.200012
107.725000	5617.041667	1777.424805	-50.257332
107.725000	5617.041667	1776.418945	22.543159
107.725000	5617.041667	1775.413086	-21.115034
107.725000	5617.041667	1774.406250	-38.645271
107.725000	5617.041667	1773.400391	34.065567
107.725000	5617.041667	1772.393555	104.356186
107.725000	5617.041667	1771.386719	-10.568851
107.725000	5617.041667	1770.379883	9.828155
107.725000	5617.041667	1769.373047	146.486267
107.725000	5617.041667	1768.365234	0.725949
107.725000	5617.041667	1767.358398	-88.057777
107.725000	5617.041667	1766.350586	57.980961
107.725000	5617.041667	1765.342773	125.695755
107.725000	5617.041667	1764.334961	77.197548
107.725000	5617.041667	1763.326172	16.848736
107.725000	5617.041667	1762.318359	-10.309525
107.725000	5617.041667	1761.309570	5.176922
107.725000	5617.041667	1760.300781	-31.475964
107.725000	5617.041667	1759.291016	-13.652903
107.725000	5617.041667	1758.282227	15.992544
107.725000	5617.041667	1757.272461	50.345592
107.725000	5617.041667	1756.262695	141.486511
107.725000	5617.041667	1755.252930	126.072174
107.725000	5617.041667	1754.243164	-26.598974
107.725000	5617.041667	1753.233398	-15.976996
107.725000	5617.041667	1752.222656	46.665131
107.725000	5617.041667	1751.211914	28.859888
107.725000	5617.041667	1750.201172	25.235826
107.725000	5617.041667	1749.190430	-72.964249
107.725000	5617.041667	1748.179688	-43.501926
107.725000	5617.041667	1747.167969	-51.877773
107.725000	5617.041667	1746.156250	-105.155434
107.725000	5617.041667	1745.144531	-9.599417
107.725000	5617.041667	1744.132813	-34.546989
107.725000	5617.041667	1743.121094	-99.641083
107.725000	5617.041667	1742.108398	-115.145004
107.725000	5617.041667	1741.095703	18.056858
107.725000	5617.041667	1740.083008	-61.208687
107.725000	5617.041667	1739.070313	90.785553
107.725000	5617.041667	1738.057617	44.541668
107.725000	5617.041667	1737.043945	-124.352127
107.725000	5617.041667	1736.030273	67.621216
107.725000	5617.041667	1735.016602	151.050690
107.725000	5617.041667	1734.002930	161.359314
107.725000	5617.041667	1732.989258	-35.754524
107.725000	5617.041667	1731.974609	-72.567406
107.725000	5617.041667	1730.959961	-5.712633
107.725000	5617.041667	1729.945313	-0.138286
107.725000	5617.041667	1728.930664	-22.837379
107.725000	5617.041667	1727.916016	48.648735
107.725000	5617.041667	1726.900391	0.029776
107.725000	5617.041667	1725.885742	50.280319
107.725000	5617.041667	1724.870117	-14.813170
107.725000	5617.041667	1723.853516	-68.129471
107.725000	5617.041667	1722.837891	38.531639
107.725000	5617.041667	1721.822266	60.472633
107.725000	5617.041667	1720.805664	42.417351
107.725000	5617.041667	1719.789063	14.955740
107.725000	5617.041667	1718.772461	8.651925
107.725000	5617.041667	1717.754883	65.792717
107.725000	5617.041667	1716.738281	-6.327347
107.725000	5617.041667	1715.720703	24.936476
107.725000	5617.041667	1714.703125	-33.074852
107.725000	5617.041667	1713.685547	-121.599937
107.725000	5617.041667	1712.667969	22.343327
107.725000	5617.041667	1711.649414	-23.923134
107.725000	5617.041667	1710.630859	19.007103
107.725000	5617.041667	1709.612305	-10.829170
107.725000	5617.041667	1708.593750	60.221046
107.725000	5617.041667	1707.575195	35.065155
107.725000	5617.041667	1706.555664	-39.340176
107.725000	5617.041667	1705.536133	94.959854
107.725000	5617.041667	1704.516602	-19.294847
107.725000	5617.041667	1703.497070	-56.164642
107.725000	5617.041667	1702.477539	80.385796
107.725000	5617.041667	1701.457031	170.016251
107.725000	5617.041667	1700.437500	128.428665
107.725000	5617.041667	1699.416992	49.375542
107.725000	5617.041667	1698.395508	-13.264536
107.725000	5617.041667	1697.375000	-5.647989
107.725000	5617.041667	1696.354492	81.544624
107.725000	5617.041667	1695.333008	-53.628487
107.725000	5617.041667	1694.311523	183.275314
107.725000	5617.041667	1693.290039	104.269867
107.725000	5617.041667	1692.267578	-30.846880
107.725000	5617.041667	1691.246094	-34.958347
107.725000	5617.041667	1690.223633	-32.061619
107.725000	5617.041667	1689.201172	85.370438
107.725000	5617.041667	1688.178711	81.224236
107.725000	5617.041667	1687.155273	6.973482
107.725000	5617.041667	1686.132813	157.026779
107.725000	5617.041667	1685.109375	-15.318549
107.725000	5617.041667	1684.085938	-33.469917
107.725000	5617.041667	1683.062500	118.827736
107.725000	5617.041667	1682.039063	37.622936
107.725000	5617.041667	1681.014648	-13.214126
107.725000	5617.041667	1679.990234	10.638136
107.725000	5617.041667	1678.965820	137.134491
107.725000	5617.041667	1677.941406	93.299553
107.725000	5617.041667	1676.916992	82.129585
107.725000	5617.041667	1675.891602	-89.929031
107.725000	5617.041667	1674.866211	62.123989
107.725000	5617.041667	1673.840820	11.336202
107.725000	5617.041667	1672.815430	9.504669
107.725000	5617.041667	1671.790039	42.621769
107.725000	5617.041667	1670.763672	126.970779
107.725000	5617.041667	1669.737305	-2.982664
107.725000	5617.041667	1668.710938	139.557037
107.725000	5617.041667	1667.684570	58.541237
107.725000	5617.041667	1666.658203	121.873451
107.725000	5617.041667	1665.630859	47.871639
107.725000	5617.041667	1664.603516	-26.100628
107.725000	5617.041667	1663.576172	53.494438
107.725000	5617.041667	1662.548828	70.260544
107.725000	5617.041667	1661.520508	35.858925
107.725000	5617.041667	1660.493164	-5.499604
107.725000	5617.041667	1659.464844	6.620521
107.725000	5617.041667	1658.436523	-97.466461
107.725000	5617.041667	1657.408203	-10.973728
107.725000	5617.041667	1656.378906	105.686714
107.725000	5617.041667	1655.350586	52.747150
107.725000	5617.041667	1654.321289	153.099228
107.725000	5617.041667	1653.291992	169.828644
107.725000	5617.041667	1652.261719	47.268074
107.725000	5617.041667	1651.232422	-7.931309
107.725000	5617.041667	1650.202148	38.992298
107.725000	5617.041667	1649.171875	213.503006
107.725000	5617.041667	1648.141602	227.898376
107.725000	5617.041667	1647.111328	126.335327
107.725000	5617.041667	1646.080078	47.999092
107.725000	5617.041667	1645.049805	115.750259
107.725000	5617.041667	1644.018555	25.866316
107.725000	5617.041667	1642.987305	144.582840
107.725000	5617.041667	1641.955078	-14.771878
107.725000	5617.041667	1640.923828	66.853653
107.725000	5617.041667	1639.891602	217.929337
107.725000	5617.041667	1638.859375	42.459770
107.725000	5617.041667	1637.827148	91.628235
107.725000	5617.041667	1636.794922	73.659050
107.725000	5617.041667	1635.761719	187.609085
107.725000	5617.041667	1634.729492	42.383717
107.725000	5617.041667	1633.696289	82.282547
107.725000	5617.041667	1632.662109	200.806747
107.725000	5617.041667	1631.628906	162.051132
107.725000	5617.041667	1630.594727	162.617584
107.725000	5617.041667	1629.561523	135.455826
107.725000	5617.041667	1628.527344	253.906082
107.725000	5617.041667	1627.493164	21.104668
107.725000	5617.041667	1626.458008	194.987442
107.725000	5617.041667	1625.423828	38.524082
107.725000	5617.041667	1624.388672	226.207214
107.725000	5617.041667	1623.353516	249.900177
107.725000	5617.041667	1622.318359	142.015274
107.725000	5617.041667	1621.282227	283.433197
107.725000	5617.041667	1620.247070	254.055237
107.725000	5617.041667	1619.210938	353.888214
107.725000	5617.041667	1618.174805	269.165527
107.725000	5617.041667	1617.137695	223.686935
107.725000	5617.041667	1616.101563	464.142120
107.725000	5617.041667	1615.064453	257.296844
107.725000	5617.041667	1614.027344	255.667175
107.725000	5617.041667	1612.990234	265.569733
107.725000	5617.041667	1611.953125	397.584717
107.725000	5617.041667	1610.916016	391.352997
107.725000	5617.041667	1609.877930	210.104965
107.725000	5617.041667	1608.839844	259.192139
107.725000	5617.041667	1607.801758	259.927155
107.725000	5617.041667	1606.763672	325.119293
107.725000	5617.041667	1605.724609	470.836456
107.725000	5617.041667	1604.685547	338.118988
107.725000	5617.041667	1603.646484	476.899261
107.725000	5617.041667	1602.607422	381.053894
107.725000	5617.041667	1601.568359	285.257843
107.725000	5617.041667	1600.528320	357.332001
107.725000	5617.041667	1599.489258	279.991089
107.725000	5617.041667	1598.449219	418.706787
107.725000	5617.041667	1597.408203	412.630188
107.725000	5617.041667	1596.368164	500.754761
107.725000	5617.041667	1595.327148	531.437988
107.725000	5617.041667	1594.287109	389.906616
107.725000	5617.041667	1593.246094	473.429901
107.725000	5617.041667	1592.204102	497.253143
107.725000	5617.041667	1591.163086	426.992676
107.725000	5617.041667	1590.121094	476.082825
107.725000	5617.041667	1589.079102	472.406036
107.725000	5617.041667	1588.037109	521.497192
107.725000	5617.041667	1586.995117	387.134674
107.725000	5617.041667	1585.953125	392.692291
107.725000	5617.041667	1584.910156	425.766937
107.725000	5617.041667	1583.867188	465.719055
107.725000	5617.041667	1582.824219	436.931610
107.725000	5617.041667	1581.781250	488.351074
107.725000	5617.041667	1580.737305	413.791229
107.725000	5617.041667	1579.693359	314.086578
107.725000	5617.041667	1578.649414	310.597107
107.725000	5617.041667	1577.605469	330.015900
107.725000	5617.041667	1576.561523	418.102356
107.725000	5617.041667	1575.516602	444.388123
107.725000	5617.041667	1574.472656	244.197067
107.725000	5617.041667	1573.427734	318.572876
107.725000	5617.041667	1572.381836	301.461060
107.725000	5617.041667	1571.336914	245.507141
107.725000	5617.041667	1570.291016	331.318359
107.725000	5617.041667	1569.246094	330.267212
107.725000	5617.041667	1568.200195	290.386353
107.725000	5617.041667	1567.153320	143.161270
107.725000	5617.041667	1566.107422	222.144089
107.725000	5617.041667	1565.060547	333.083801
107.725000	5617.041667	1564.013672	256.772186
107.725000	5617.041667	1562.966797	322.042328
107.725000	5617.041667	1561.919922	165.917831
107.725000	5617.041667	1560.872070	151.349548
