#X		#Y		#Wave		#Intensity
240.280851	6072.431667	1999.946289	-58.801037
240.280851	6072.431667	1998.981445	141.868546
240.280851	6072.431667	1998.017578	-13.526011
240.280851	6072.431667	1997.052734	150.936386
240.280851	6072.431667	1996.088867	122.210373
240.280851	6072.431667	1995.124023	4.433465
240.280851	6072.431667	1994.159180	-85.934837
240.280851	6072.431667	1993.193359	103.662292
240.280851	6072.431667	1992.228516	102.672737
240.280851	6072.431667	1991.262695	-155.644760
240.280851	6072.431667	1990.296875	34.202133
240.280851	6072.431667	1989.331055	48.402599
240.280851	6072.431667	1988.365234	-164.900986
240.280851	6072.431667	1987.398438	-100.988861
240.280851	6072.431667	1986.432617	-51.832275
240.280851	6072.431667	1985.465820	-27.322361
240.280851	6072.431667	1984.499023	41.775864
240.280851	6072.431667	1983.532227	4.664462
240.280851	6072.431667	1982.565430	83.808220
240.280851	6072.431667	1981.597656	-4.998098
240.280851	6072.431667	1980.629883	-34.392857
240.280851	6072.431667	1979.662109	99.323181
240.280851	6072.431667	1978.694336	18.240875
240.280851	6072.431667	1977.726563	11.342717
240.280851	6072.431667	1976.758789	-74.461044
240.280851	6072.431667	1975.790039	116.265663
240.280851	6072.431667	1974.821289	-13.780966
240.280851	6072.431667	1973.852539	144.950989
240.280851	6072.431667	1972.883789	24.970491
240.280851	6072.431667	1971.915039	62.945732
240.280851	6072.431667	1970.945313	128.102356
240.280851	6072.431667	1969.975586	5.945829
240.280851	6072.431667	1969.005859	46.582867
240.280851	6072.431667	1968.036133	33.058689
240.280851	6072.431667	1967.066406	-86.341225
240.280851	6072.431667	1966.096680	-136.653641
240.280851	6072.431667	1965.125977	-135.163101
240.280851	6072.431667	1964.155273	46.154099
240.280851	6072.431667	1963.184570	37.886250
240.280851	6072.431667	1962.213867	59.220303
240.280851	6072.431667	1961.242188	58.453091
240.280851	6072.431667	1960.271484	92.194519
240.280851	6072.431667	1959.299805	-31.476761
240.280851	6072.431667	1958.328125	86.008614
240.280851	6072.431667	1957.356445	4.299597
240.280851	6072.431667	1956.384766	259.535400
240.280851	6072.431667	1955.412109	64.837524
240.280851	6072.431667	1954.439453	-48.627182
240.280851	6072.431667	1953.467773	2.650739
240.280851	6072.431667	1952.495117	29.383627
240.280851	6072.431667	1951.521484	-78.960953
240.280851	6072.431667	1950.548828	1.900862
240.280851	6072.431667	1949.575195	-128.413971
240.280851	6072.431667	1948.601563	-62.222179
240.280851	6072.431667	1947.627930	-18.108019
240.280851	6072.431667	1946.654297	-3.424288
240.280851	6072.431667	1945.680664	57.915684
240.280851	6072.431667	1944.706055	11.318215
240.280851	6072.431667	1943.732422	40.815739
240.280851	6072.431667	1942.757813	-140.577637
240.280851	6072.431667	1941.783203	-216.433670
240.280851	6072.431667	1940.807617	65.695152
240.280851	6072.431667	1939.833008	16.852781
240.280851	6072.431667	1938.857422	-4.985415
240.280851	6072.431667	1937.881836	115.323563
240.280851	6072.431667	1936.906250	5.341131
240.280851	6072.431667	1935.930664	-45.792175
240.280851	6072.431667	1934.955078	-38.109638
240.280851	6072.431667	1933.978516	114.046532
240.280851	6072.431667	1933.001953	-181.795959
240.280851	6072.431667	1932.025391	51.141148
240.280851	6072.431667	1931.048828	19.738708
240.280851	6072.431667	1930.072266	93.568977
240.280851	6072.431667	1929.094727	-13.619263
240.280851	6072.431667	1928.118164	-98.738571
240.280851	6072.431667	1927.140625	163.404938
240.280851	6072.431667	1926.163086	134.545944
240.280851	6072.431667	1925.184570	-21.386967
240.280851	6072.431667	1924.207031	69.575378
240.280851	6072.431667	1923.228516	38.351681
240.280851	6072.431667	1922.250000	29.137514
240.280851	6072.431667	1921.271484	41.921261
240.280851	6072.431667	1920.292969	-57.620201
240.280851	6072.431667	1919.314453	130.985916
240.280851	6072.431667	1918.334961	9.515039
240.280851	6072.431667	1917.355469	34.535797
240.280851	6072.431667	1916.375977	-106.375473
240.280851	6072.431667	1915.396484	169.960098
240.280851	6072.431667	1914.416992	133.976303
240.280851	6072.431667	1913.436523	-38.560123
240.280851	6072.431667	1912.457031	18.175362
240.280851	6072.431667	1911.476563	318.681885
240.280851	6072.431667	1910.496094	75.533958
240.280851	6072.431667	1909.515625	15.251339
240.280851	6072.431667	1908.534180	149.914322
240.280851	6072.431667	1907.552734	101.823975
240.280851	6072.431667	1906.572266	-111.868996
240.280851	6072.431667	1905.590820	0.826822
240.280851	6072.431667	1904.608398	-224.941803
240.280851	6072.431667	1903.626953	-36.808300
240.280851	6072.431667	1902.644531	-123.765587
240.280851	6072.431667	1901.663086	39.940624
240.280851	6072.431667	1900.680664	72.206093
240.280851	6072.431667	1899.698242	16.888599
240.280851	6072.431667	1898.714844	105.071449
240.280851	6072.431667	1897.732422	-139.900177
240.280851	6072.431667	1896.749023	45.510109
240.280851	6072.431667	1895.765625	85.008774
240.280851	6072.431667	1894.782227	24.848146
240.280851	6072.431667	1893.798828	185.804016
240.280851	6072.431667	1892.814453	40.608105
240.280851	6072.431667	1891.831055	-55.968468
240.280851	6072.431667	1890.846680	250.584259
240.280851	6072.431667	1889.862305	151.557831
240.280851	6072.431667	1888.877930	37.991730
240.280851	6072.431667	1887.892578	125.895035
240.280851	6072.431667	1886.908203	80.295815
240.280851	6072.431667	1885.922852	-108.436646
240.280851	6072.431667	1884.937500	-234.045868
240.280851	6072.431667	1883.952148	-20.100740
240.280851	6072.431667	1882.965820	118.584564
240.280851	6072.431667	1881.980469	-21.584770
240.280851	6072.431667	1880.994141	-89.003227
240.280851	6072.431667	1880.007813	-66.748207
240.280851	6072.431667	1879.021484	16.053820
240.280851	6072.431667	1878.035156	169.058655
240.280851	6072.431667	1877.047852	21.664944
240.280851	6072.431667	1876.061523	126.146271
240.280851	6072.431667	1875.074219	-9.114651
240.280851	6072.431667	1874.086914	-6.367946
240.280851	6072.431667	1873.098633	-13.323404
240.280851	6072.431667	1872.111328	28.100336
240.280851	6072.431667	1871.123047	-7.928964
240.280851	6072.431667	1870.135742	-75.407982
240.280851	6072.431667	1869.147461	33.656189
240.280851	6072.431667	1868.158203	111.224998
240.280851	6072.431667	1867.169922	-57.833832
240.280851	6072.431667	1866.180664	186.451981
240.280851	6072.431667	1865.192383	275.965881
240.280851	6072.431667	1864.203125	-81.549385
240.280851	6072.431667	1863.213867	116.638718
240.280851	6072.431667	1862.223633	-57.207085
240.280851	6072.431667	1861.234375	-35.418968
240.280851	6072.431667	1860.244141	-57.119598
240.280851	6072.431667	1859.253906	44.266479
240.280851	6072.431667	1858.263672	15.269212
240.280851	6072.431667	1857.273438	61.057213
240.280851	6072.431667	1856.282227	109.214378
240.280851	6072.431667	1855.291992	63.261387
240.280851	6072.431667	1854.300781	-255.205917
240.280851	6072.431667	1853.309570	-64.840439
240.280851	6072.431667	1852.317383	-219.294662
240.280851	6072.431667	1851.326172	57.705238
240.280851	6072.431667	1850.333984	93.599640
240.280851	6072.431667	1849.342773	57.176155
240.280851	6072.431667	1848.350586	13.510826
240.280851	6072.431667	1847.357422	-49.433811
240.280851	6072.431667	1846.365234	135.631989
240.280851	6072.431667	1845.372070	87.075127
240.280851	6072.431667	1844.379883	115.532158
240.280851	6072.431667	1843.386719	105.444092
240.280851	6072.431667	1842.393555	-8.133594
240.280851	6072.431667	1841.399414	10.612179
240.280851	6072.431667	1840.406250	46.158043
240.280851	6072.431667	1839.412109	105.706528
240.280851	6072.431667	1838.417969	-63.205303
240.280851	6072.431667	1837.423828	224.644012
240.280851	6072.431667	1836.429688	-33.214504
240.280851	6072.431667	1835.434570	-125.206192
240.280851	6072.431667	1834.440430	181.618622
240.280851	6072.431667	1833.445313	-92.995857
240.280851	6072.431667	1832.450195	-72.146164
240.280851	6072.431667	1831.454102	191.176819
240.280851	6072.431667	1830.458984	159.086105
240.280851	6072.431667	1829.462891	167.777832
240.280851	6072.431667	1828.466797	-20.348288
240.280851	6072.431667	1827.470703	31.495649
240.280851	6072.431667	1826.474609	16.118082
240.280851	6072.431667	1825.478516	185.390915
240.280851	6072.431667	1824.481445	241.860199
240.280851	6072.431667	1823.484375	22.561563
240.280851	6072.431667	1822.487305	206.016327
240.280851	6072.431667	1821.490234	293.504639
240.280851	6072.431667	1820.493164	138.914078
240.280851	6072.431667	1819.495117	96.942863
240.280851	6072.431667	1818.498047	153.160889
240.280851	6072.431667	1817.500000	175.793854
240.280851	6072.431667	1816.500977	181.620834
240.280851	6072.431667	1815.502930	343.015656
240.280851	6072.431667	1814.504883	193.166763
240.280851	6072.431667	1813.505859	146.236069
240.280851	6072.431667	1812.506836	281.119965
240.280851	6072.431667	1811.507813	176.709976
240.280851	6072.431667	1810.508789	93.828278
240.280851	6072.431667	1809.508789	-12.972703
240.280851	6072.431667	1808.508789	-55.218288
240.280851	6072.431667	1807.508789	98.518204
240.280851	6072.431667	1806.508789	13.178101
240.280851	6072.431667	1805.508789	99.868759
240.280851	6072.431667	1804.508789	179.324493
240.280851	6072.431667	1803.507813	227.661057
240.280851	6072.431667	1802.506836	-60.767769
240.280851	6072.431667	1801.505859	44.824108
240.280851	6072.431667	1800.504883	260.147583
240.280851	6072.431667	1799.502930	-40.169037
240.280851	6072.431667	1798.501953	77.180939
240.280851	6072.431667	1797.500000	87.087952
240.280851	6072.431667	1796.498047	254.384552
240.280851	6072.431667	1795.496094	264.181061
240.280851	6072.431667	1794.493164	45.030457
240.280851	6072.431667	1793.491211	-52.489719
240.280851	6072.431667	1792.488281	102.639572
240.280851	6072.431667	1791.485352	21.750090
240.280851	6072.431667	1790.482422	105.254913
240.280851	6072.431667	1789.478516	121.987137
240.280851	6072.431667	1788.475586	69.609634
240.280851	6072.431667	1787.471680	124.367683
240.280851	6072.431667	1786.467773	14.793420
240.280851	6072.431667	1785.463867	17.099756
240.280851	6072.431667	1784.459961	140.741791
240.280851	6072.431667	1783.455078	219.088562
240.280851	6072.431667	1782.450195	92.773949
240.280851	6072.431667	1781.445313	16.420034
240.280851	6072.431667	1780.440430	39.937996
240.280851	6072.431667	1779.435547	137.116928
240.280851	6072.431667	1778.429688	91.586479
240.280851	6072.431667	1777.424805	138.732971
240.280851	6072.431667	1776.418945	0.469900
240.280851	6072.431667	1775.413086	23.780039
240.280851	6072.431667	1774.406250	-40.848698
240.280851	6072.431667	1773.400391	8.510343
240.280851	6072.431667	1772.393555	-77.535255
240.280851	6072.431667	1771.386719	12.093122
240.280851	6072.431667	1770.379883	23.322309
240.280851	6072.431667	1769.373047	-53.294884
240.280851	6072.431667	1768.365234	-58.743378
240.280851	6072.431667	1767.358398	89.972267
240.280851	6072.431667	1766.350586	41.733665
240.280851	6072.431667	1765.342773	-32.608849
240.280851	6072.431667	1764.334961	141.982895
240.280851	6072.431667	1763.326172	69.944733
240.280851	6072.431667	1762.318359	9.750977
240.280851	6072.431667	1761.309570	-22.026649
240.280851	6072.431667	1760.300781	-129.638214
240.280851	6072.431667	1759.291016	-19.335512
240.280851	6072.431667	1758.282227	-39.355862
240.280851	6072.431667	1757.272461	-9.687358
240.280851	6072.431667	1756.262695	57.810699
240.280851	6072.431667	1755.252930	-47.530506
240.280851	6072.431667	1754.243164	-20.350492
240.280851	6072.431667	1753.233398	-49.997761
240.280851	6072.431667	1752.222656	-150.638367
240.280851	6072.431667	1751.211914	-95.184151
240.280851	6072.431667	1750.201172	-117.817596
240.280851	6072.431667	1749.190430	-3.357897
240.280851	6072.431667	1748.179688	-101.707237
240.280851	6072.431667	1747.167969	45.716240
240.280851	6072.431667	1746.156250	37.106316
240.280851	6072.431667	1745.144531	-139.258514
240.280851	6072.431667	1744.132813	50.496895
240.280851	6072.431667	1743.121094	185.834641
240.280851	6072.431667	1742.108398	-181.803207
240.280851	6072.431667	1741.095703	130.492157
240.280851	6072.431667	1740.083008	67.384964
240.280851	6072.431667	1739.070313	53.820717
240.280851	6072.431667	1738.057617	33.150192
240.280851	6072.431667	1737.043945	26.602425
240.280851	6072.431667	1736.030273	-31.858917
240.280851	6072.431667	1735.016602	15.771242
240.280851	6072.431667	1734.002930	-23.871155
240.280851	6072.431667	1732.989258	61.384014
240.280851	6072.431667	1731.974609	-162.125931
240.280851	6072.431667	1730.959961	-199.458664
240.280851	6072.431667	1729.945313	-170.853210
240.280851	6072.431667	1728.930664	-130.515427
240.280851	6072.431667	1727.916016	-123.190193
240.280851	6072.431667	1726.900391	-118.257133
240.280851	6072.431667	1725.885742	-106.292328
240.280851	6072.431667	1724.870117	-115.547409
240.280851	6072.431667	1723.853516	37.512909
240.280851	6072.431667	1722.837891	141.088120
240.280851	6072.431667	1721.822266	150.514404
240.280851	6072.431667	1720.805664	-11.757920
240.280851	6072.431667	1719.789063	-63.498085
240.280851	6072.431667	1718.772461	39.891815
240.280851	6072.431667	1717.754883	-108.260033
240.280851	6072.431667	1716.738281	-134.194244
240.280851	6072.431667	1715.720703	98.265808
240.280851	6072.431667	1714.703125	128.610794
240.280851	6072.431667	1713.685547	13.316568
240.280851	6072.431667	1712.667969	1.346278
240.280851	6072.431667	1711.649414	-85.770844
240.280851	6072.431667	1710.630859	-62.574284
240.280851	6072.431667	1709.612305	49.755577
240.280851	6072.431667	1708.593750	58.786388
240.280851	6072.431667	1707.575195	-96.409294
240.280851	6072.431667	1706.555664	36.883186
240.280851	6072.431667	1705.536133	153.684067
240.280851	6072.431667	1704.516602	150.853973
240.280851	6072.431667	1703.497070	87.058258
240.280851	6072.431667	1702.477539	-40.010429
240.280851	6072.431667	1701.457031	88.321480
240.280851	6072.431667	1700.437500	-17.666279
240.280851	6072.431667	1699.416992	208.927780
240.280851	6072.431667	1698.395508	138.020889
240.280851	6072.431667	1697.375000	116.286461
240.280851	6072.431667	1696.354492	106.239838
240.280851	6072.431667	1695.333008	-6.803946
240.280851	6072.431667	1694.311523	-7.516769
240.280851	6072.431667	1693.290039	113.394653
240.280851	6072.431667	1692.267578	33.084190
240.280851	6072.431667	1691.246094	193.649338
240.280851	6072.431667	1690.223633	17.451223
240.280851	6072.431667	1689.201172	-198.439758
240.280851	6072.431667	1688.178711	141.963074
240.280851	6072.431667	1687.155273	164.421875
240.280851	6072.431667	1686.132813	51.356636
240.280851	6072.431667	1685.109375	71.447632
240.280851	6072.431667	1684.085938	16.779039
240.280851	6072.431667	1683.062500	99.869766
240.280851	6072.431667	1682.039063	-27.189028
240.280851	6072.431667	1681.014648	97.843277
240.280851	6072.431667	1679.990234	57.130051
240.280851	6072.431667	1678.965820	63.073978
240.280851	6072.431667	1677.941406	50.336548
240.280851	6072.431667	1676.916992	177.516754
240.280851	6072.431667	1675.891602	120.418617
240.280851	6072.431667	1674.866211	40.011269
240.280851	6072.431667	1673.840820	122.776505
240.280851	6072.431667	1672.815430	40.035984
240.280851	6072.431667	1671.790039	-42.688450
240.280851	6072.431667	1670.763672	368.445282
240.280851	6072.431667	1669.737305	248.386826
240.280851	6072.431667	1668.710938	-125.454247
240.280851	6072.431667	1667.684570	-138.307083
240.280851	6072.431667	1666.658203	76.942986
240.280851	6072.431667	1665.630859	-77.939194
240.280851	6072.431667	1664.603516	158.123077
240.280851	6072.431667	1663.576172	156.796188
240.280851	6072.431667	1662.548828	99.635201
240.280851	6072.431667	1661.520508	188.979202
240.280851	6072.431667	1660.493164	327.107239
240.280851	6072.431667	1659.464844	183.895325
240.280851	6072.431667	1658.436523	208.061798
240.280851	6072.431667	1657.408203	341.418549
240.280851	6072.431667	1656.378906	221.479462
240.280851	6072.431667	1655.350586	303.660400
240.280851	6072.431667	1654.321289	234.845062
240.280851	6072.431667	1653.291992	265.886658
240.280851	6072.431667	1652.261719	396.718872
240.280851	6072.431667	1651.232422	246.665924
240.280851	6072.431667	1650.202148	161.629013
240.280851	6072.431667	1649.171875	350.382263
240.280851	6072.431667	1648.141602	314.054016
240.280851	6072.431667	1647.111328	430.796997
240.280851	6072.431667	1646.080078	540.525391
240.280851	6072.431667	1645.049805	288.564453
240.280851	6072.431667	1644.018555	430.714752
240.280851	6072.431667	1642.987305	528.773865
240.280851	6072.431667	1641.955078	515.573975
240.280851	6072.431667	1640.923828	370.342560
240.280851	6072.431667	1639.891602	484.548309
240.280851	6072.431667	1638.859375	656.595215
240.280851	6072.431667	1637.827148	560.019836
240.280851	6072.431667	1636.794922	549.121338
240.280851	6072.431667	1635.761719	441.021088
240.280851	6072.431667	1634.729492	582.852783
240.280851	6072.431667	1633.696289	567.316528
240.280851	6072.431667	1632.662109	618.851257
240.280851	6072.431667	1631.628906	561.688354
240.280851	6072.431667	1630.594727	601.643127
240.280851	6072.431667	1629.561523	764.098450
240.280851	6072.431667	1628.527344	790.132263
240.280851	6072.431667	1627.493164	767.634033
240.280851	6072.431667	1626.458008	728.968079
240.280851	6072.431667	1625.423828	706.492859
240.280851	6072.431667	1624.388672	822.578369
240.280851	6072.431667	1623.353516	807.019226
240.280851	6072.431667	1622.318359	911.503479
240.280851	6072.431667	1621.282227	907.472595
240.280851	6072.431667	1620.247070	896.530090
240.280851	6072.431667	1619.210938	1007.862427
240.280851	6072.431667	1618.174805	934.630493
240.280851	6072.431667	1617.137695	725.364746
240.280851	6072.431667	1616.101563	772.121704
240.280851	6072.431667	1615.064453	814.250061
240.280851	6072.431667	1614.027344	978.520935
240.280851	6072.431667	1612.990234	953.780518
240.280851	6072.431667	1611.953125	970.527222
240.280851	6072.431667	1610.916016	874.406067
240.280851	6072.431667	1609.877930	904.989624
240.280851	6072.431667	1608.839844	1112.864502
240.280851	6072.431667	1607.801758	1012.188171
240.280851	6072.431667	1606.763672	1259.106689
240.280851	6072.431667	1605.724609	1036.491577
240.280851	6072.431667	1604.685547	1228.106934
240.280851	6072.431667	1603.646484	1042.410400
240.280851	6072.431667	1602.607422	1033.885620
240.280851	6072.431667	1601.568359	859.820190
240.280851	6072.431667	1600.528320	1272.059326
240.280851	6072.431667	1599.489258	1042.875000
240.280851	6072.431667	1598.449219	1087.255737
240.280851	6072.431667	1597.408203	1087.972900
240.280851	6072.431667	1596.368164	964.663208
240.280851	6072.431667	1595.327148	859.783508
240.280851	6072.431667	1594.287109	1016.739258
240.280851	6072.431667	1593.246094	964.724487
240.280851	6072.431667	1592.204102	1087.186890
240.280851	6072.431667	1591.163086	1172.906006
240.280851	6072.431667	1590.121094	941.966492
240.280851	6072.431667	1589.079102	743.250610
240.280851	6072.431667	1588.037109	913.893433
240.280851	6072.431667	1586.995117	770.331909
240.280851	6072.431667	1585.953125	961.573425
240.280851	6072.431667	1584.910156	971.668457
240.280851	6072.431667	1583.867188	832.814453
240.280851	6072.431667	1582.824219	897.962036
240.280851	6072.431667	1581.781250	937.904602
240.280851	6072.431667	1580.737305	1156.500366
240.280851	6072.431667	1579.693359	983.445801
240.280851	6072.431667	1578.649414	1078.355469
240.280851	6072.431667	1577.605469	990.123535
240.280851	6072.431667	1576.561523	1080.462280
240.280851	6072.431667	1575.516602	1282.903687
240.280851	6072.431667	1574.472656	1364.045166
240.280851	6072.431667	1573.427734	1452.034424
240.280851	6072.431667	1572.381836	1505.706055
240.280851	6072.431667	1571.336914	1291.880737
240.280851	6072.431667	1570.291016	1341.041260
240.280851	6072.431667	1569.246094	1285.080688
240.280851	6072.431667	1568.200195	1416.536621
240.280851	6072.431667	1567.153320	1244.111694
240.280851	6072.431667	1566.107422	1243.097168
240.280851	6072.431667	1565.060547	1013.735840
240.280851	6072.431667	1564.013672	999.118469
240.280851	6072.431667	1562.966797	1005.079346
