#X		#Y		#Wave		#Intensity
421.038830	6402.956667	1999.946289	-175.958130
421.038830	6402.956667	1998.981445	273.589539
421.038830	6402.956667	1998.017578	56.428925
421.038830	6402.956667	1997.052734	37.375813
421.038830	6402.956667	1996.088867	50.311649
421.038830	6402.956667	1995.124023	-120.281914
421.038830	6402.956667	1994.159180	-139.941895
421.038830	6402.956667	1993.193359	23.446926
421.038830	6402.956667	1992.228516	-36.253094
421.038830	6402.956667	1991.262695	17.742355
421.038830	6402.956667	1990.296875	-42.318031
421.038830	6402.956667	1989.331055	78.090256
421.038830	6402.956667	1988.365234	-125.818886
421.038830	6402.956667	1987.398438	-89.894768
421.038830	6402.956667	1986.432617	67.020767
421.038830	6402.956667	1985.465820	97.609688
421.038830	6402.956667	1984.499023	202.188736
421.038830	6402.956667	1983.532227	-32.052013
421.038830	6402.956667	1982.565430	45.014935
421.038830	6402.956667	1981.597656	119.434357
421.038830	6402.956667	1980.629883	82.515549
421.038830	6402.956667	1979.662109	-48.386673
421.038830	6402.956667	1978.694336	25.582443
421.038830	6402.956667	1977.726563	328.999237
421.038830	6402.956667	1976.758789	81.703690
421.038830	6402.956667	1975.790039	184.834015
421.038830	6402.956667	1974.821289	21.307413
421.038830	6402.956667	1973.852539	188.313217
421.038830	6402.956667	1972.883789	143.010452
421.038830	6402.956667	1971.915039	90.214302
421.038830	6402.956667	1970.945313	244.451782
421.038830	6402.956667	1969.975586	191.445007
421.038830	6402.956667	1969.005859	219.695496
421.038830	6402.956667	1968.036133	45.760380
421.038830	6402.956667	1967.066406	-34.577694
421.038830	6402.956667	1966.096680	18.049788
421.038830	6402.956667	1965.125977	65.642502
421.038830	6402.956667	1964.155273	177.158142
421.038830	6402.956667	1963.184570	138.365448
421.038830	6402.956667	1962.213867	92.121948
421.038830	6402.956667	1961.242188	208.255859
421.038830	6402.956667	1960.271484	-34.988853
421.038830	6402.956667	1959.299805	208.914124
421.038830	6402.956667	1958.328125	-61.435757
421.038830	6402.956667	1957.356445	297.835327
421.038830	6402.956667	1956.384766	238.903915
421.038830	6402.956667	1955.412109	241.394333
421.038830	6402.956667	1954.439453	140.592621
421.038830	6402.956667	1953.467773	-80.642784
421.038830	6402.956667	1952.495117	74.077415
421.038830	6402.956667	1951.521484	164.817993
421.038830	6402.956667	1950.548828	157.232758
421.038830	6402.956667	1949.575195	115.225197
421.038830	6402.956667	1948.601563	154.211227
421.038830	6402.956667	1947.627930	-5.692698
421.038830	6402.956667	1946.654297	-64.950241
421.038830	6402.956667	1945.680664	177.598907
421.038830	6402.956667	1944.706055	-11.772551
421.038830	6402.956667	1943.732422	206.079636
421.038830	6402.956667	1942.757813	-0.457532
421.038830	6402.956667	1941.783203	-3.430159
421.038830	6402.956667	1940.807617	84.276939
421.038830	6402.956667	1939.833008	154.769958
421.038830	6402.956667	1938.857422	210.507782
421.038830	6402.956667	1937.881836	143.694214
421.038830	6402.956667	1936.906250	108.730347
421.038830	6402.956667	1935.930664	98.254555
421.038830	6402.956667	1934.955078	-125.281395
421.038830	6402.956667	1933.978516	-86.776443
421.038830	6402.956667	1933.001953	-16.478043
421.038830	6402.956667	1932.025391	166.364304
421.038830	6402.956667	1931.048828	-22.814419
421.038830	6402.956667	1930.072266	71.864143
421.038830	6402.956667	1929.094727	164.052536
421.038830	6402.956667	1928.118164	214.624405
421.038830	6402.956667	1927.140625	-238.533539
421.038830	6402.956667	1926.163086	90.779289
421.038830	6402.956667	1925.184570	-200.875565
421.038830	6402.956667	1924.207031	32.993610
421.038830	6402.956667	1923.228516	5.334848
421.038830	6402.956667	1922.250000	68.073204
421.038830	6402.956667	1921.271484	130.788818
421.038830	6402.956667	1920.292969	176.388916
421.038830	6402.956667	1919.314453	124.312950
421.038830	6402.956667	1918.334961	123.522621
421.038830	6402.956667	1917.355469	81.245529
421.038830	6402.956667	1916.375977	-46.415909
421.038830	6402.956667	1915.396484	343.193420
421.038830	6402.956667	1914.416992	59.432720
421.038830	6402.956667	1913.436523	-4.724736
421.038830	6402.956667	1912.457031	-185.889313
421.038830	6402.956667	1911.476563	32.833977
421.038830	6402.956667	1910.496094	19.930300
421.038830	6402.956667	1909.515625	-66.066528
421.038830	6402.956667	1908.534180	13.660446
421.038830	6402.956667	1907.552734	-133.183060
421.038830	6402.956667	1906.572266	-202.020309
421.038830	6402.956667	1905.590820	106.627655
421.038830	6402.956667	1904.608398	54.838493
421.038830	6402.956667	1903.626953	17.687870
421.038830	6402.956667	1902.644531	-58.375534
421.038830	6402.956667	1901.663086	271.969910
421.038830	6402.956667	1900.680664	-130.088806
421.038830	6402.956667	1899.698242	-45.498661
421.038830	6402.956667	1898.714844	77.985886
421.038830	6402.956667	1897.732422	28.804394
421.038830	6402.956667	1896.749023	-73.827812
421.038830	6402.956667	1895.765625	190.615784
421.038830	6402.956667	1894.782227	-6.750363
421.038830	6402.956667	1893.798828	89.966537
421.038830	6402.956667	1892.814453	50.625248
421.038830	6402.956667	1891.831055	-112.550835
421.038830	6402.956667	1890.846680	180.876328
421.038830	6402.956667	1889.862305	22.626360
421.038830	6402.956667	1888.877930	102.339973
421.038830	6402.956667	1887.892578	101.951103
421.038830	6402.956667	1886.908203	-60.995838
421.038830	6402.956667	1885.922852	-3.094006
421.038830	6402.956667	1884.937500	45.101631
421.038830	6402.956667	1883.952148	-20.686298
421.038830	6402.956667	1882.965820	209.381409
421.038830	6402.956667	1881.980469	5.441651
421.038830	6402.956667	1880.994141	7.616213
421.038830	6402.956667	1880.007813	0.114578
421.038830	6402.956667	1879.021484	-99.436417
421.038830	6402.956667	1878.035156	140.205276
421.038830	6402.956667	1877.047852	47.964813
421.038830	6402.956667	1876.061523	69.587151
421.038830	6402.956667	1875.074219	-27.414213
421.038830	6402.956667	1874.086914	-10.594646
421.038830	6402.956667	1873.098633	110.301071
421.038830	6402.956667	1872.111328	-54.356316
421.038830	6402.956667	1871.123047	117.338364
421.038830	6402.956667	1870.135742	32.591709
421.038830	6402.956667	1869.147461	-61.780926
421.038830	6402.956667	1868.158203	-47.298328
421.038830	6402.956667	1867.169922	-64.233543
421.038830	6402.956667	1866.180664	-42.476231
421.038830	6402.956667	1865.192383	-27.962603
421.038830	6402.956667	1864.203125	-83.507088
421.038830	6402.956667	1863.213867	-126.938835
421.038830	6402.956667	1862.223633	-56.828777
421.038830	6402.956667	1861.234375	-119.542000
421.038830	6402.956667	1860.244141	83.349312
421.038830	6402.956667	1859.253906	155.831360
421.038830	6402.956667	1858.263672	-25.105089
421.038830	6402.956667	1857.273438	100.476089
421.038830	6402.956667	1856.282227	-174.446228
421.038830	6402.956667	1855.291992	78.971634
421.038830	6402.956667	1854.300781	-22.192028
421.038830	6402.956667	1853.309570	9.301768
421.038830	6402.956667	1852.317383	45.612560
421.038830	6402.956667	1851.326172	-7.257871
421.038830	6402.956667	1850.333984	24.239502
421.038830	6402.956667	1849.342773	212.335907
421.038830	6402.956667	1848.350586	75.177055
421.038830	6402.956667	1847.357422	-110.091042
421.038830	6402.956667	1846.365234	-136.361267
421.038830	6402.956667	1845.372070	87.759209
421.038830	6402.956667	1844.379883	169.787628
421.038830	6402.956667	1843.386719	25.572870
421.038830	6402.956667	1842.393555	-70.462654
421.038830	6402.956667	1841.399414	66.890381
421.038830	6402.956667	1840.406250	189.762451
421.038830	6402.956667	1839.412109	50.473133
421.038830	6402.956667	1838.417969	74.729965
421.038830	6402.956667	1837.423828	-45.251801
421.038830	6402.956667	1836.429688	113.604393
421.038830	6402.956667	1835.434570	-64.009705
421.038830	6402.956667	1834.440430	-15.724429
421.038830	6402.956667	1833.445313	-75.550270
421.038830	6402.956667	1832.450195	-22.481892
421.038830	6402.956667	1831.454102	30.564024
421.038830	6402.956667	1830.458984	141.203232
421.038830	6402.956667	1829.462891	66.979912
421.038830	6402.956667	1828.466797	31.176723
421.038830	6402.956667	1827.470703	67.361427
421.038830	6402.956667	1826.474609	26.762915
421.038830	6402.956667	1825.478516	94.102242
421.038830	6402.956667	1824.481445	15.133587
421.038830	6402.956667	1823.484375	-61.415062
421.038830	6402.956667	1822.487305	-281.765991
421.038830	6402.956667	1821.490234	25.209070
421.038830	6402.956667	1820.493164	63.691166
421.038830	6402.956667	1819.495117	-82.320473
421.038830	6402.956667	1818.498047	28.003899
421.038830	6402.956667	1817.500000	138.275665
421.038830	6402.956667	1816.500977	30.608427
421.038830	6402.956667	1815.502930	-21.970737
421.038830	6402.956667	1814.504883	28.374298
421.038830	6402.956667	1813.505859	21.255007
421.038830	6402.956667	1812.506836	-31.334896
421.038830	6402.956667	1811.507813	21.332485
421.038830	6402.956667	1810.508789	-19.308891
421.038830	6402.956667	1809.508789	203.077972
421.038830	6402.956667	1808.508789	162.383347
421.038830	6402.956667	1807.508789	45.198399
421.038830	6402.956667	1806.508789	116.836006
421.038830	6402.956667	1805.508789	135.860992
421.038830	6402.956667	1804.508789	-2.809289
421.038830	6402.956667	1803.507813	99.788055
421.038830	6402.956667	1802.506836	47.105896
421.038830	6402.956667	1801.505859	156.775467
421.038830	6402.956667	1800.504883	63.477806
421.038830	6402.956667	1799.502930	60.885696
421.038830	6402.956667	1798.501953	-185.121643
421.038830	6402.956667	1797.500000	81.879059
421.038830	6402.956667	1796.498047	-164.087906
421.038830	6402.956667	1795.496094	93.219063
421.038830	6402.956667	1794.493164	-50.177727
421.038830	6402.956667	1793.491211	-33.820709
421.038830	6402.956667	1792.488281	56.390919
421.038830	6402.956667	1791.485352	5.941547
421.038830	6402.956667	1790.482422	-4.012163
421.038830	6402.956667	1789.478516	50.327358
421.038830	6402.956667	1788.475586	-16.848627
421.038830	6402.956667	1787.471680	73.132706
421.038830	6402.956667	1786.467773	13.059595
421.038830	6402.956667	1785.463867	-44.640751
421.038830	6402.956667	1784.459961	-88.070435
421.038830	6402.956667	1783.455078	-48.236706
421.038830	6402.956667	1782.450195	172.352905
421.038830	6402.956667	1781.445313	133.566055
421.038830	6402.956667	1780.440430	2.014525
421.038830	6402.956667	1779.435547	-34.414482
421.038830	6402.956667	1778.429688	-135.050629
421.038830	6402.956667	1777.424805	-93.076942
421.038830	6402.956667	1776.418945	43.894611
421.038830	6402.956667	1775.413086	38.228844
421.038830	6402.956667	1774.406250	-26.856163
421.038830	6402.956667	1773.400391	309.409973
421.038830	6402.956667	1772.393555	85.132835
421.038830	6402.956667	1771.386719	98.306274
421.038830	6402.956667	1770.379883	-45.219566
421.038830	6402.956667	1769.373047	-43.969540
421.038830	6402.956667	1768.365234	-45.133945
421.038830	6402.956667	1767.358398	5.853968
421.038830	6402.956667	1766.350586	410.174561
421.038830	6402.956667	1765.342773	309.208710
421.038830	6402.956667	1764.334961	82.583885
421.038830	6402.956667	1763.326172	-238.814148
421.038830	6402.956667	1762.318359	195.889374
421.038830	6402.956667	1761.309570	78.286568
421.038830	6402.956667	1760.300781	109.936272
421.038830	6402.956667	1759.291016	-52.697830
421.038830	6402.956667	1758.282227	-35.330429
421.038830	6402.956667	1757.272461	263.742615
421.038830	6402.956667	1756.262695	32.388863
421.038830	6402.956667	1755.252930	2.258401
421.038830	6402.956667	1754.243164	78.581345
421.038830	6402.956667	1753.233398	195.049759
421.038830	6402.956667	1752.222656	-78.875832
421.038830	6402.956667	1751.211914	63.498596
421.038830	6402.956667	1750.201172	2.420784
421.038830	6402.956667	1749.190430	40.612118
421.038830	6402.956667	1748.179688	3.103559
421.038830	6402.956667	1747.167969	232.603516
421.038830	6402.956667	1746.156250	140.632416
421.038830	6402.956667	1745.144531	79.357986
421.038830	6402.956667	1744.132813	110.170586
421.038830	6402.956667	1743.121094	72.443016
421.038830	6402.956667	1742.108398	124.394234
421.038830	6402.956667	1741.095703	65.332069
421.038830	6402.956667	1740.083008	-135.359924
421.038830	6402.956667	1739.070313	-57.592102
421.038830	6402.956667	1738.057617	156.928284
421.038830	6402.956667	1737.043945	-102.787010
421.038830	6402.956667	1736.030273	-93.612526
421.038830	6402.956667	1735.016602	104.133209
421.038830	6402.956667	1734.002930	136.737122
421.038830	6402.956667	1732.989258	72.644379
421.038830	6402.956667	1731.974609	-29.181343
421.038830	6402.956667	1730.959961	-48.560570
421.038830	6402.956667	1729.945313	-136.294220
421.038830	6402.956667	1728.930664	6.754290
421.038830	6402.956667	1727.916016	-59.868279
421.038830	6402.956667	1726.900391	144.213684
421.038830	6402.956667	1725.885742	148.098190
421.038830	6402.956667	1724.870117	114.273834
421.038830	6402.956667	1723.853516	54.524590
421.038830	6402.956667	1722.837891	222.931198
421.038830	6402.956667	1721.822266	-123.856369
421.038830	6402.956667	1720.805664	-19.078955
421.038830	6402.956667	1719.789063	-41.351387
421.038830	6402.956667	1718.772461	46.810661
421.038830	6402.956667	1717.754883	-36.680447
421.038830	6402.956667	1716.738281	25.493986
421.038830	6402.956667	1715.720703	132.223129
421.038830	6402.956667	1714.703125	-190.973770
421.038830	6402.956667	1713.685547	105.866188
421.038830	6402.956667	1712.667969	-59.998207
421.038830	6402.956667	1711.649414	15.931101
421.038830	6402.956667	1710.630859	166.882568
421.038830	6402.956667	1709.612305	127.652145
421.038830	6402.956667	1708.593750	3.922476
421.038830	6402.956667	1707.575195	-33.023170
421.038830	6402.956667	1706.555664	-20.762136
421.038830	6402.956667	1705.536133	-60.144779
421.038830	6402.956667	1704.516602	12.961798
421.038830	6402.956667	1703.497070	118.800850
421.038830	6402.956667	1702.477539	215.172272
421.038830	6402.956667	1701.457031	46.695793
421.038830	6402.956667	1700.437500	-53.832596
421.038830	6402.956667	1699.416992	260.164307
421.038830	6402.956667	1698.395508	9.656203
421.038830	6402.956667	1697.375000	-105.016640
421.038830	6402.956667	1696.354492	171.200012
421.038830	6402.956667	1695.333008	40.048679
421.038830	6402.956667	1694.311523	58.643520
421.038830	6402.956667	1693.290039	126.305016
421.038830	6402.956667	1692.267578	2.092968
421.038830	6402.956667	1691.246094	-21.564840
421.038830	6402.956667	1690.223633	59.940235
421.038830	6402.956667	1689.201172	66.560509
421.038830	6402.956667	1688.178711	49.756153
421.038830	6402.956667	1687.155273	222.171738
421.038830	6402.956667	1686.132813	30.024624
421.038830	6402.956667	1685.109375	312.056824
421.038830	6402.956667	1684.085938	77.824417
421.038830	6402.956667	1683.062500	130.820847
421.038830	6402.956667	1682.039063	10.999496
421.038830	6402.956667	1681.014648	54.546700
421.038830	6402.956667	1679.990234	261.373260
421.038830	6402.956667	1678.965820	321.087891
421.038830	6402.956667	1677.941406	406.389099
421.038830	6402.956667	1676.916992	263.055511
421.038830	6402.956667	1675.891602	259.626831
421.038830	6402.956667	1674.866211	486.945740
421.038830	6402.956667	1673.840820	238.642441
421.038830	6402.956667	1672.815430	393.541504
421.038830	6402.956667	1671.790039	282.721405
421.038830	6402.956667	1670.763672	239.446243
421.038830	6402.956667	1669.737305	338.211334
421.038830	6402.956667	1668.710938	401.962311
421.038830	6402.956667	1667.684570	454.003296
421.038830	6402.956667	1666.658203	505.977264
421.038830	6402.956667	1665.630859	297.231110
421.038830	6402.956667	1664.603516	363.079773
421.038830	6402.956667	1663.576172	519.584167
421.038830	6402.956667	1662.548828	599.231018
421.038830	6402.956667	1661.520508	648.565430
421.038830	6402.956667	1660.493164	544.394958
421.038830	6402.956667	1659.464844	609.905945
421.038830	6402.956667	1658.436523	670.700745
421.038830	6402.956667	1657.408203	650.102905
421.038830	6402.956667	1656.378906	641.080322
421.038830	6402.956667	1655.350586	894.494568
421.038830	6402.956667	1654.321289	660.083496
421.038830	6402.956667	1653.291992	690.411560
421.038830	6402.956667	1652.261719	729.966797
421.038830	6402.956667	1651.232422	792.682617
421.038830	6402.956667	1650.202148	843.726135
421.038830	6402.956667	1649.171875	999.113159
421.038830	6402.956667	1648.141602	896.926208
421.038830	6402.956667	1647.111328	873.591553
421.038830	6402.956667	1646.080078	803.848206
421.038830	6402.956667	1645.049805	863.923828
421.038830	6402.956667	1644.018555	1111.673706
421.038830	6402.956667	1642.987305	872.648987
421.038830	6402.956667	1641.955078	754.153076
421.038830	6402.956667	1640.923828	932.180420
421.038830	6402.956667	1639.891602	815.966064
421.038830	6402.956667	1638.859375	903.530029
421.038830	6402.956667	1637.827148	965.561340
421.038830	6402.956667	1636.794922	1171.043945
421.038830	6402.956667	1635.761719	966.793823
421.038830	6402.956667	1634.729492	1005.542114
421.038830	6402.956667	1633.696289	1025.730591
421.038830	6402.956667	1632.662109	1191.583374
421.038830	6402.956667	1631.628906	1149.232300
421.038830	6402.956667	1630.594727	1183.156006
421.038830	6402.956667	1629.561523	1235.536255
421.038830	6402.956667	1628.527344	1105.287231
421.038830	6402.956667	1627.493164	1310.099121
421.038830	6402.956667	1626.458008	1413.150146
421.038830	6402.956667	1625.423828	1345.223633
421.038830	6402.956667	1624.388672	1323.474854
421.038830	6402.956667	1623.353516	1437.929199
421.038830	6402.956667	1622.318359	1485.371338
421.038830	6402.956667	1621.282227	1456.602417
421.038830	6402.956667	1620.247070	1467.055542
421.038830	6402.956667	1619.210938	1555.913940
421.038830	6402.956667	1618.174805	1432.509888
421.038830	6402.956667	1617.137695	1463.634399
421.038830	6402.956667	1616.101563	1365.616455
421.038830	6402.956667	1615.064453	1399.006348
421.038830	6402.956667	1614.027344	1199.580566
421.038830	6402.956667	1612.990234	1484.123169
421.038830	6402.956667	1611.953125	1570.402344
421.038830	6402.956667	1610.916016	1608.257446
421.038830	6402.956667	1609.877930	1717.467163
421.038830	6402.956667	1608.839844	1469.723877
421.038830	6402.956667	1607.801758	1733.124146
421.038830	6402.956667	1606.763672	1591.319946
421.038830	6402.956667	1605.724609	1578.413940
421.038830	6402.956667	1604.685547	1461.966919
421.038830	6402.956667	1603.646484	1778.005981
421.038830	6402.956667	1602.607422	1719.035645
421.038830	6402.956667	1601.568359	1777.345825
421.038830	6402.956667	1600.528320	1493.072266
421.038830	6402.956667	1599.489258	1512.307739
421.038830	6402.956667	1598.449219	1503.941284
421.038830	6402.956667	1597.408203	1638.013550
421.038830	6402.956667	1596.368164	1542.317749
421.038830	6402.956667	1595.327148	1614.303467
421.038830	6402.956667	1594.287109	1364.786133
421.038830	6402.956667	1593.246094	1090.099121
421.038830	6402.956667	1592.204102	1354.914917
421.038830	6402.956667	1591.163086	1185.892090
421.038830	6402.956667	1590.121094	1342.737793
421.038830	6402.956667	1589.079102	1366.465332
421.038830	6402.956667	1588.037109	1202.110352
421.038830	6402.956667	1586.995117	1134.127808
421.038830	6402.956667	1585.953125	1293.144531
421.038830	6402.956667	1584.910156	1303.096924
421.038830	6402.956667	1583.867188	1028.867188
421.038830	6402.956667	1582.824219	1160.308716
421.038830	6402.956667	1581.781250	1170.284668
421.038830	6402.956667	1580.737305	992.437439
421.038830	6402.956667	1579.693359	1043.661133
421.038830	6402.956667	1578.649414	1110.895020
421.038830	6402.956667	1577.605469	1100.278320
421.038830	6402.956667	1576.561523	1114.846191
421.038830	6402.956667	1575.516602	946.353394
421.038830	6402.956667	1574.472656	1100.511108
421.038830	6402.956667	1573.427734	952.686768
421.038830	6402.956667	1572.381836	978.721191
421.038830	6402.956667	1571.336914	892.729492
421.038830	6402.956667	1570.291016	1014.794250
421.038830	6402.956667	1569.246094	1111.688843
421.038830	6402.956667	1568.200195	957.195068
421.038830	6402.956667	1567.153320	1106.617554
421.038830	6402.956667	1566.107422	876.833862
421.038830	6402.956667	1565.060547	836.693420
421.038830	6402.956667	1564.013672	728.085205
