#X		#Y		#Wave		#Intensity
177.618085	5619.490000	1999.946289	22.522015
177.618085	5619.490000	1998.981445	87.570900
177.618085	5619.490000	1998.017578	-48.847908
177.618085	5619.490000	1997.052734	-11.750717
177.618085	5619.490000	1996.088867	-39.090298
177.618085	5619.490000	1995.124023	-24.309975
177.618085	5619.490000	1994.159180	-39.259151
177.618085	5619.490000	1993.193359	119.134109
177.618085	5619.490000	1992.228516	119.012749
177.618085	5619.490000	1991.262695	141.167297
177.618085	5619.490000	1990.296875	56.890194
177.618085	5619.490000	1989.331055	49.348984
177.618085	5619.490000	1988.365234	-76.943100
177.618085	5619.490000	1987.398438	29.320461
177.618085	5619.490000	1986.432617	86.080002
177.618085	5619.490000	1985.465820	51.330093
177.618085	5619.490000	1984.499023	6.701807
177.618085	5619.490000	1983.532227	41.181519
177.618085	5619.490000	1982.565430	88.002174
177.618085	5619.490000	1981.597656	60.680466
177.618085	5619.490000	1980.629883	8.663149
177.618085	5619.490000	1979.662109	-8.759220
177.618085	5619.490000	1978.694336	5.924374
177.618085	5619.490000	1977.726563	13.193453
177.618085	5619.490000	1976.758789	-16.569635
177.618085	5619.490000	1975.790039	-80.875565
177.618085	5619.490000	1974.821289	62.114750
177.618085	5619.490000	1973.852539	106.365677
177.618085	5619.490000	1972.883789	0.132862
177.618085	5619.490000	1971.915039	59.171436
177.618085	5619.490000	1970.945313	-12.497070
177.618085	5619.490000	1969.975586	-0.321898
177.618085	5619.490000	1969.005859	58.677673
177.618085	5619.490000	1968.036133	41.258247
177.618085	5619.490000	1967.066406	-27.898781
177.618085	5619.490000	1966.096680	68.017876
177.618085	5619.490000	1965.125977	171.286072
177.618085	5619.490000	1964.155273	70.124527
177.618085	5619.490000	1963.184570	-3.918899
177.618085	5619.490000	1962.213867	84.528831
177.618085	5619.490000	1961.242188	-55.944874
177.618085	5619.490000	1960.271484	5.407517
177.618085	5619.490000	1959.299805	-29.213793
177.618085	5619.490000	1958.328125	39.486343
177.618085	5619.490000	1957.356445	-68.912498
177.618085	5619.490000	1956.384766	68.612625
177.618085	5619.490000	1955.412109	51.205734
177.618085	5619.490000	1954.439453	75.587761
177.618085	5619.490000	1953.467773	16.403225
177.618085	5619.490000	1952.495117	-47.675056
177.618085	5619.490000	1951.521484	-11.012094
177.618085	5619.490000	1950.548828	121.423111
177.618085	5619.490000	1949.575195	64.721092
177.618085	5619.490000	1948.601563	-1.782958
177.618085	5619.490000	1947.627930	27.470257
177.618085	5619.490000	1946.654297	10.078369
177.618085	5619.490000	1945.680664	-7.309236
177.618085	5619.490000	1944.706055	44.001717
177.618085	5619.490000	1943.732422	63.402618
177.618085	5619.490000	1942.757813	-5.494573
177.618085	5619.490000	1941.783203	89.915611
177.618085	5619.490000	1940.807617	74.968307
177.618085	5619.490000	1939.833008	42.865700
177.618085	5619.490000	1938.857422	23.025883
177.618085	5619.490000	1937.881836	115.898819
177.618085	5619.490000	1936.906250	-85.232582
177.618085	5619.490000	1935.930664	120.286430
177.618085	5619.490000	1934.955078	12.278089
177.618085	5619.490000	1933.978516	-147.108063
177.618085	5619.490000	1933.001953	-17.585863
177.618085	5619.490000	1932.025391	48.251614
177.618085	5619.490000	1931.048828	-62.121792
177.618085	5619.490000	1930.072266	47.730644
177.618085	5619.490000	1929.094727	-69.945847
177.618085	5619.490000	1928.118164	76.544899
177.618085	5619.490000	1927.140625	-11.757539
177.618085	5619.490000	1926.163086	95.546043
177.618085	5619.490000	1925.184570	-53.839909
177.618085	5619.490000	1924.207031	16.767601
177.618085	5619.490000	1923.228516	-61.698067
177.618085	5619.490000	1922.250000	-101.052063
177.618085	5619.490000	1921.271484	6.150879
177.618085	5619.490000	1920.292969	-72.279968
177.618085	5619.490000	1919.314453	-72.556572
177.618085	5619.490000	1918.334961	-9.369038
177.618085	5619.490000	1917.355469	-48.714386
177.618085	5619.490000	1916.375977	-34.365616
177.618085	5619.490000	1915.396484	45.845676
177.618085	5619.490000	1914.416992	30.892576
177.618085	5619.490000	1913.436523	-42.589851
177.618085	5619.490000	1912.457031	-1.447585
177.618085	5619.490000	1911.476563	90.870804
177.618085	5619.490000	1910.496094	10.093657
177.618085	5619.490000	1909.515625	9.762187
177.618085	5619.490000	1908.534180	106.887161
177.618085	5619.490000	1907.552734	-17.709549
177.618085	5619.490000	1906.572266	-122.780037
177.618085	5619.490000	1905.590820	3.523464
177.618085	5619.490000	1904.608398	-16.305964
177.618085	5619.490000	1903.626953	51.499310
177.618085	5619.490000	1902.644531	38.960346
177.618085	5619.490000	1901.663086	14.253971
177.618085	5619.490000	1900.680664	-8.014783
177.618085	5619.490000	1899.698242	79.178627
177.618085	5619.490000	1898.714844	-35.518124
177.618085	5619.490000	1897.732422	-72.369324
177.618085	5619.490000	1896.749023	36.651638
177.618085	5619.490000	1895.765625	-9.931650
177.618085	5619.490000	1894.782227	-39.491562
177.618085	5619.490000	1893.798828	69.446205
177.618085	5619.490000	1892.814453	15.579354
177.618085	5619.490000	1891.831055	5.445157
177.618085	5619.490000	1890.846680	48.732529
177.618085	5619.490000	1889.862305	7.022699
177.618085	5619.490000	1888.877930	-20.112858
177.618085	5619.490000	1887.892578	35.273041
177.618085	5619.490000	1886.908203	49.381546
177.618085	5619.490000	1885.922852	12.531880
177.618085	5619.490000	1884.937500	4.797496
177.618085	5619.490000	1883.952148	45.562851
177.618085	5619.490000	1882.965820	76.608360
177.618085	5619.490000	1881.980469	61.575157
177.618085	5619.490000	1880.994141	44.118118
177.618085	5619.490000	1880.007813	77.551193
177.618085	5619.490000	1879.021484	43.124809
177.618085	5619.490000	1878.035156	-10.674519
177.618085	5619.490000	1877.047852	13.043203
177.618085	5619.490000	1876.061523	-55.272213
177.618085	5619.490000	1875.074219	128.221771
177.618085	5619.490000	1874.086914	40.532497
177.618085	5619.490000	1873.098633	76.297264
177.618085	5619.490000	1872.111328	95.103859
177.618085	5619.490000	1871.123047	80.027206
177.618085	5619.490000	1870.135742	-14.870754
177.618085	5619.490000	1869.147461	66.798592
177.618085	5619.490000	1868.158203	25.118162
177.618085	5619.490000	1867.169922	22.125303
177.618085	5619.490000	1866.180664	40.879230
177.618085	5619.490000	1865.192383	47.536201
177.618085	5619.490000	1864.203125	71.096085
177.618085	5619.490000	1863.213867	0.430559
177.618085	5619.490000	1862.223633	4.654381
177.618085	5619.490000	1861.234375	-17.692589
177.618085	5619.490000	1860.244141	-32.795845
177.618085	5619.490000	1859.253906	29.340599
177.618085	5619.490000	1858.263672	43.179333
177.618085	5619.490000	1857.273438	129.391937
177.618085	5619.490000	1856.282227	-59.454247
177.618085	5619.490000	1855.291992	159.389236
177.618085	5619.490000	1854.300781	156.281235
177.618085	5619.490000	1853.309570	10.912368
177.618085	5619.490000	1852.317383	77.725922
177.618085	5619.490000	1851.326172	-0.104548
177.618085	5619.490000	1850.333984	23.294657
177.618085	5619.490000	1849.342773	37.039993
177.618085	5619.490000	1848.350586	-7.039796
177.618085	5619.490000	1847.357422	9.097939
177.618085	5619.490000	1846.365234	15.589732
177.618085	5619.490000	1845.372070	101.516960
177.618085	5619.490000	1844.379883	21.319897
177.618085	5619.490000	1843.386719	83.131157
177.618085	5619.490000	1842.393555	-28.328764
177.618085	5619.490000	1841.399414	62.319370
177.618085	5619.490000	1840.406250	49.501503
177.618085	5619.490000	1839.412109	89.584076
177.618085	5619.490000	1838.417969	100.791267
177.618085	5619.490000	1837.423828	-3.398935
177.618085	5619.490000	1836.429688	53.468266
177.618085	5619.490000	1835.434570	9.381931
177.618085	5619.490000	1834.440430	174.319611
177.618085	5619.490000	1833.445313	60.550499
177.618085	5619.490000	1832.450195	98.114494
177.618085	5619.490000	1831.454102	22.802380
177.618085	5619.490000	1830.458984	43.536617
177.618085	5619.490000	1829.462891	-10.152941
177.618085	5619.490000	1828.466797	154.547333
177.618085	5619.490000	1827.470703	38.456493
177.618085	5619.490000	1826.474609	-70.403275
177.618085	5619.490000	1825.478516	51.016342
177.618085	5619.490000	1824.481445	71.666222
177.618085	5619.490000	1823.484375	145.044388
177.618085	5619.490000	1822.487305	-74.055511
177.618085	5619.490000	1821.490234	-5.489696
177.618085	5619.490000	1820.493164	60.644638
177.618085	5619.490000	1819.495117	174.658203
177.618085	5619.490000	1818.498047	132.928497
177.618085	5619.490000	1817.500000	12.176593
177.618085	5619.490000	1816.500977	13.571612
177.618085	5619.490000	1815.502930	86.773834
177.618085	5619.490000	1814.504883	-31.536654
177.618085	5619.490000	1813.505859	-27.769896
177.618085	5619.490000	1812.506836	-7.266644
177.618085	5619.490000	1811.507813	87.373711
177.618085	5619.490000	1810.508789	129.352814
177.618085	5619.490000	1809.508789	142.611664
177.618085	5619.490000	1808.508789	-18.667519
177.618085	5619.490000	1807.508789	-50.820675
177.618085	5619.490000	1806.508789	53.248367
177.618085	5619.490000	1805.508789	37.799595
177.618085	5619.490000	1804.508789	148.959702
177.618085	5619.490000	1803.507813	18.831762
177.618085	5619.490000	1802.506836	-20.512054
177.618085	5619.490000	1801.505859	66.689964
177.618085	5619.490000	1800.504883	32.106010
177.618085	5619.490000	1799.502930	64.351570
177.618085	5619.490000	1798.501953	58.395599
177.618085	5619.490000	1797.500000	-100.257027
177.618085	5619.490000	1796.498047	63.156864
177.618085	5619.490000	1795.496094	-0.062691
177.618085	5619.490000	1794.493164	-20.349329
177.618085	5619.490000	1793.491211	104.783096
177.618085	5619.490000	1792.488281	163.119400
177.618085	5619.490000	1791.485352	85.589554
177.618085	5619.490000	1790.482422	81.939644
177.618085	5619.490000	1789.478516	42.548000
177.618085	5619.490000	1788.475586	81.757805
177.618085	5619.490000	1787.471680	80.460716
177.618085	5619.490000	1786.467773	19.634125
177.618085	5619.490000	1785.463867	63.555367
177.618085	5619.490000	1784.459961	45.572830
177.618085	5619.490000	1783.455078	-22.382219
177.618085	5619.490000	1782.450195	-35.604824
177.618085	5619.490000	1781.445313	5.873770
177.618085	5619.490000	1780.440430	2.142680
177.618085	5619.490000	1779.435547	-18.240471
177.618085	5619.490000	1778.429688	44.574478
177.618085	5619.490000	1777.424805	-18.610826
177.618085	5619.490000	1776.418945	-19.999399
177.618085	5619.490000	1775.413086	-7.143043
177.618085	5619.490000	1774.406250	8.073262
177.618085	5619.490000	1773.400391	-2.850275
177.618085	5619.490000	1772.393555	71.700890
177.618085	5619.490000	1771.386719	-5.724180
177.618085	5619.490000	1770.379883	-87.877419
177.618085	5619.490000	1769.373047	29.333231
177.618085	5619.490000	1768.365234	11.245880
177.618085	5619.490000	1767.358398	-63.777573
177.618085	5619.490000	1766.350586	-10.707403
177.618085	5619.490000	1765.342773	49.446186
177.618085	5619.490000	1764.334961	5.248651
177.618085	5619.490000	1763.326172	115.134247
177.618085	5619.490000	1762.318359	-7.288438
177.618085	5619.490000	1761.309570	-65.698273
177.618085	5619.490000	1760.300781	-71.976257
177.618085	5619.490000	1759.291016	-2.467212
177.618085	5619.490000	1758.282227	102.528831
177.618085	5619.490000	1757.272461	-76.652168
177.618085	5619.490000	1756.262695	9.359071
177.618085	5619.490000	1755.252930	107.161705
177.618085	5619.490000	1754.243164	48.736958
177.618085	5619.490000	1753.233398	73.131744
177.618085	5619.490000	1752.222656	2.887650
177.618085	5619.490000	1751.211914	13.070795
177.618085	5619.490000	1750.201172	30.334044
177.618085	5619.490000	1749.190430	-96.629944
177.618085	5619.490000	1748.179688	38.811195
177.618085	5619.490000	1747.167969	91.477577
177.618085	5619.490000	1746.156250	-47.269470
177.618085	5619.490000	1745.144531	142.387726
177.618085	5619.490000	1744.132813	100.500702
177.618085	5619.490000	1743.121094	-16.945135
177.618085	5619.490000	1742.108398	-2.143140
177.618085	5619.490000	1741.095703	-51.090088
177.618085	5619.490000	1740.083008	-85.867477
177.618085	5619.490000	1739.070313	20.935377
177.618085	5619.490000	1738.057617	14.448401
177.618085	5619.490000	1737.043945	69.279724
177.618085	5619.490000	1736.030273	81.632324
177.618085	5619.490000	1735.016602	-2.699568
177.618085	5619.490000	1734.002930	16.715498
177.618085	5619.490000	1732.989258	-36.950558
177.618085	5619.490000	1731.974609	69.632767
177.618085	5619.490000	1730.959961	32.449749
177.618085	5619.490000	1729.945313	-58.906055
177.618085	5619.490000	1728.930664	35.817596
177.618085	5619.490000	1727.916016	-100.260582
177.618085	5619.490000	1726.900391	-62.085526
177.618085	5619.490000	1725.885742	44.325787
177.618085	5619.490000	1724.870117	-6.984908
177.618085	5619.490000	1723.853516	-4.170416
177.618085	5619.490000	1722.837891	-34.298206
177.618085	5619.490000	1721.822266	62.582291
177.618085	5619.490000	1720.805664	48.895012
177.618085	5619.490000	1719.789063	16.395805
177.618085	5619.490000	1718.772461	68.522232
177.618085	5619.490000	1717.754883	3.111295
177.618085	5619.490000	1716.738281	-50.533539
177.618085	5619.490000	1715.720703	22.692326
177.618085	5619.490000	1714.703125	-33.302383
177.618085	5619.490000	1713.685547	-7.091822
177.618085	5619.490000	1712.667969	-30.205467
177.618085	5619.490000	1711.649414	35.883579
177.618085	5619.490000	1710.630859	-48.269192
177.618085	5619.490000	1709.612305	20.128281
177.618085	5619.490000	1708.593750	-40.544548
177.618085	5619.490000	1707.575195	-21.449715
177.618085	5619.490000	1706.555664	-82.108208
177.618085	5619.490000	1705.536133	-41.926899
177.618085	5619.490000	1704.516602	-29.900589
177.618085	5619.490000	1703.497070	5.552089
177.618085	5619.490000	1702.477539	36.296440
177.618085	5619.490000	1701.457031	-24.355059
177.618085	5619.490000	1700.437500	-12.371882
177.618085	5619.490000	1699.416992	-82.374023
177.618085	5619.490000	1698.395508	16.237701
177.618085	5619.490000	1697.375000	-11.616998
177.618085	5619.490000	1696.354492	-37.127598
177.618085	5619.490000	1695.333008	-27.532921
177.618085	5619.490000	1694.311523	-99.842545
177.618085	5619.490000	1693.290039	19.696053
177.618085	5619.490000	1692.267578	-120.438683
177.618085	5619.490000	1691.246094	-92.155815
177.618085	5619.490000	1690.223633	69.374519
177.618085	5619.490000	1689.201172	22.792925
177.618085	5619.490000	1688.178711	39.324577
177.618085	5619.490000	1687.155273	118.931786
177.618085	5619.490000	1686.132813	4.597634
177.618085	5619.490000	1685.109375	-128.386642
177.618085	5619.490000	1684.085938	74.958961
177.618085	5619.490000	1683.062500	-6.633315
177.618085	5619.490000	1682.039063	-55.518600
177.618085	5619.490000	1681.014648	47.315182
177.618085	5619.490000	1679.990234	47.428375
177.618085	5619.490000	1678.965820	61.533955
177.618085	5619.490000	1677.941406	-8.346023
177.618085	5619.490000	1676.916992	61.725296
177.618085	5619.490000	1675.891602	82.796104
177.618085	5619.490000	1674.866211	-140.930161
177.618085	5619.490000	1673.840820	15.348098
177.618085	5619.490000	1672.815430	27.077503
177.618085	5619.490000	1671.790039	45.786705
177.618085	5619.490000	1670.763672	1.586139
177.618085	5619.490000	1669.737305	38.913147
177.618085	5619.490000	1668.710938	38.963375
177.618085	5619.490000	1667.684570	55.305519
177.618085	5619.490000	1666.658203	-65.696808
177.618085	5619.490000	1665.630859	85.626869
177.618085	5619.490000	1664.603516	20.497118
177.618085	5619.490000	1663.576172	-21.349150
177.618085	5619.490000	1662.548828	-7.362771
177.618085	5619.490000	1661.520508	22.890142
177.618085	5619.490000	1660.493164	41.503757
177.618085	5619.490000	1659.464844	25.235893
177.618085	5619.490000	1658.436523	25.239031
177.618085	5619.490000	1657.408203	-60.736740
177.618085	5619.490000	1656.378906	-18.909639
177.618085	5619.490000	1655.350586	29.866777
177.618085	5619.490000	1654.321289	57.718464
177.618085	5619.490000	1653.291992	152.888733
177.618085	5619.490000	1652.261719	-32.870663
177.618085	5619.490000	1651.232422	66.914856
177.618085	5619.490000	1650.202148	32.068245
177.618085	5619.490000	1649.171875	34.352375
177.618085	5619.490000	1648.141602	1.838625
177.618085	5619.490000	1647.111328	8.759272
177.618085	5619.490000	1646.080078	36.540844
177.618085	5619.490000	1645.049805	31.854748
177.618085	5619.490000	1644.018555	85.110825
177.618085	5619.490000	1642.987305	68.823166
177.618085	5619.490000	1641.955078	27.051363
177.618085	5619.490000	1640.923828	98.800568
177.618085	5619.490000	1639.891602	13.030170
177.618085	5619.490000	1638.859375	22.227669
177.618085	5619.490000	1637.827148	29.104343
177.618085	5619.490000	1636.794922	-5.687608
177.618085	5619.490000	1635.761719	59.040783
177.618085	5619.490000	1634.729492	49.703388
177.618085	5619.490000	1633.696289	49.619198
177.618085	5619.490000	1632.662109	54.157452
177.618085	5619.490000	1631.628906	135.003021
177.618085	5619.490000	1630.594727	109.463921
177.618085	5619.490000	1629.561523	132.476486
177.618085	5619.490000	1628.527344	-27.096851
177.618085	5619.490000	1627.493164	92.974350
177.618085	5619.490000	1626.458008	53.594875
177.618085	5619.490000	1625.423828	219.795547
177.618085	5619.490000	1624.388672	217.352615
177.618085	5619.490000	1623.353516	157.189407
177.618085	5619.490000	1622.318359	92.431740
177.618085	5619.490000	1621.282227	117.705833
177.618085	5619.490000	1620.247070	256.036896
177.618085	5619.490000	1619.210938	214.364288
177.618085	5619.490000	1618.174805	237.291733
177.618085	5619.490000	1617.137695	131.065079
177.618085	5619.490000	1616.101563	57.160690
177.618085	5619.490000	1615.064453	61.660755
177.618085	5619.490000	1614.027344	119.168999
177.618085	5619.490000	1612.990234	153.611542
177.618085	5619.490000	1611.953125	116.620819
177.618085	5619.490000	1610.916016	224.760406
177.618085	5619.490000	1609.877930	139.406525
177.618085	5619.490000	1608.839844	183.027878
177.618085	5619.490000	1607.801758	104.622635
177.618085	5619.490000	1606.763672	-42.800568
177.618085	5619.490000	1605.724609	120.492905
177.618085	5619.490000	1604.685547	97.363838
177.618085	5619.490000	1603.646484	127.151688
177.618085	5619.490000	1602.607422	198.325806
177.618085	5619.490000	1601.568359	103.917305
177.618085	5619.490000	1600.528320	191.161789
177.618085	5619.490000	1599.489258	253.091507
177.618085	5619.490000	1598.449219	165.624146
177.618085	5619.490000	1597.408203	82.786148
177.618085	5619.490000	1596.368164	163.081451
177.618085	5619.490000	1595.327148	112.433601
177.618085	5619.490000	1594.287109	112.326469
177.618085	5619.490000	1593.246094	64.007835
177.618085	5619.490000	1592.204102	91.455582
177.618085	5619.490000	1591.163086	98.241959
177.618085	5619.490000	1590.121094	178.449234
177.618085	5619.490000	1589.079102	155.397141
177.618085	5619.490000	1588.037109	162.172943
177.618085	5619.490000	1586.995117	95.568970
177.618085	5619.490000	1585.953125	267.431030
177.618085	5619.490000	1584.910156	198.544357
177.618085	5619.490000	1583.867188	173.231094
177.618085	5619.490000	1582.824219	37.947407
177.618085	5619.490000	1581.781250	246.350632
177.618085	5619.490000	1580.737305	248.535553
177.618085	5619.490000	1579.693359	264.463470
177.618085	5619.490000	1578.649414	122.410904
177.618085	5619.490000	1577.605469	168.121811
177.618085	5619.490000	1576.561523	145.159515
177.618085	5619.490000	1575.516602	129.073212
177.618085	5619.490000	1574.472656	158.753128
177.618085	5619.490000	1573.427734	110.656158
177.618085	5619.490000	1572.381836	163.201340
177.618085	5619.490000	1571.336914	94.553329
177.618085	5619.490000	1570.291016	44.222244
177.618085	5619.490000	1569.246094	126.475235
177.618085	5619.490000	1568.200195	199.558548
177.618085	5619.490000	1567.153320	199.509644
177.618085	5619.490000	1566.107422	41.860771
177.618085	5619.490000	1565.060547	197.143356
177.618085	5619.490000	1564.013672	78.380173
177.618085	5619.490000	1562.966797	50.980488
177.618085	5619.490000	1561.919922	39.573059
177.618085	5619.490000	1560.872070	28.173918
177.618085	5619.490000	1559.825195	92.074043
177.618085	5619.490000	1558.777344	149.109848
