#X		#Y		#Wave		#Intensity
11876.285638	1498.710000	1999.980469	-170.159988
11876.285638	1498.710000	1999.016602	-121.219246
11876.285638	1498.710000	1998.052734	104.256523
11876.285638	1498.710000	1997.087891	-79.467178
11876.285638	1498.710000	1996.123047	-92.384949
11876.285638	1498.710000	1995.158203	-107.992134
11876.285638	1498.710000	1994.193359	116.442345
11876.285638	1498.710000	1993.228516	28.577187
11876.285638	1498.710000	1992.262695	160.899872
11876.285638	1498.710000	1991.297852	38.016308
11876.285638	1498.710000	1990.332031	48.640900
11876.285638	1498.710000	1989.366211	106.096138
11876.285638	1498.710000	1988.399414	69.346825
11876.285638	1498.710000	1987.433594	101.699112
11876.285638	1498.710000	1986.466797	-54.074902
11876.285638	1498.710000	1985.500977	-34.395184
11876.285638	1498.710000	1984.534180	-27.234661
11876.285638	1498.710000	1983.567383	-99.318306
11876.285638	1498.710000	1982.599609	-141.860626
11876.285638	1498.710000	1981.632813	60.080517
11876.285638	1498.710000	1980.665039	279.107758
11876.285638	1498.710000	1979.697266	21.241455
11876.285638	1498.710000	1978.729492	242.413025
11876.285638	1498.710000	1977.761719	-20.531130
11876.285638	1498.710000	1976.792969	30.006601
11876.285638	1498.710000	1975.825195	114.968307
11876.285638	1498.710000	1974.856445	54.205532
11876.285638	1498.710000	1973.887695	-105.321785
11876.285638	1498.710000	1972.918945	-50.287270
11876.285638	1498.710000	1971.949219	100.813911
11876.285638	1498.710000	1970.980469	-12.064855
11876.285638	1498.710000	1970.010742	-38.703346
11876.285638	1498.710000	1969.041016	23.319347
11876.285638	1498.710000	1968.071289	16.237360
11876.285638	1498.710000	1967.101563	107.639221
11876.285638	1498.710000	1966.130859	201.398880
11876.285638	1498.710000	1965.161133	21.662554
11876.285638	1498.710000	1964.190430	-57.108803
11876.285638	1498.710000	1963.219727	179.233215
11876.285638	1498.710000	1962.249023	88.032600
11876.285638	1498.710000	1961.277344	41.109837
11876.285638	1498.710000	1960.306641	104.884796
11876.285638	1498.710000	1959.334961	20.969786
11876.285638	1498.710000	1958.363281	178.098083
11876.285638	1498.710000	1957.391602	-1.805650
11876.285638	1498.710000	1956.419922	7.648954
11876.285638	1498.710000	1955.447266	216.191833
11876.285638	1498.710000	1954.474609	223.066879
11876.285638	1498.710000	1953.501953	52.965069
11876.285638	1498.710000	1952.529297	8.204222
11876.285638	1498.710000	1951.556641	12.562064
11876.285638	1498.710000	1950.583984	120.047691
11876.285638	1498.710000	1949.610352	274.125793
11876.285638	1498.710000	1948.636719	77.025414
11876.285638	1498.710000	1947.663086	-26.740641
11876.285638	1498.710000	1946.689453	46.222206
11876.285638	1498.710000	1945.715820	6.264521
11876.285638	1498.710000	1944.741211	-102.390633
11876.285638	1498.710000	1943.767578	31.822990
11876.285638	1498.710000	1942.792969	-42.487400
11876.285638	1498.710000	1941.818359	125.969429
11876.285638	1498.710000	1940.842773	-132.217514
11876.285638	1498.710000	1939.868164	82.749290
11876.285638	1498.710000	1938.892578	10.902541
11876.285638	1498.710000	1937.916992	100.792068
11876.285638	1498.710000	1936.941406	-12.683266
11876.285638	1498.710000	1935.965820	40.433945
11876.285638	1498.710000	1934.990234	17.617643
11876.285638	1498.710000	1934.013672	-24.776968
11876.285638	1498.710000	1933.037109	-10.851677
11876.285638	1498.710000	1932.060547	-114.406128
11876.285638	1498.710000	1931.083984	-44.179474
11876.285638	1498.710000	1930.107422	4.007061
11876.285638	1498.710000	1929.129883	-48.108734
11876.285638	1498.710000	1928.153320	129.693848
11876.285638	1498.710000	1927.175781	-125.359726
11876.285638	1498.710000	1926.198242	-6.265153
11876.285638	1498.710000	1925.219727	29.687853
11876.285638	1498.710000	1924.242188	-32.112297
11876.285638	1498.710000	1923.263672	216.426971
11876.285638	1498.710000	1922.285156	125.322433
11876.285638	1498.710000	1921.306641	-36.564953
11876.285638	1498.710000	1920.328125	14.073997
11876.285638	1498.710000	1919.349609	-54.927162
11876.285638	1498.710000	1918.370117	-128.770432
11876.285638	1498.710000	1917.391602	24.407688
11876.285638	1498.710000	1916.412109	18.932121
11876.285638	1498.710000	1915.431641	11.032799
11876.285638	1498.710000	1914.452148	-231.013901
11876.285638	1498.710000	1913.472656	39.195332
11876.285638	1498.710000	1912.492188	197.154663
11876.285638	1498.710000	1911.511719	-5.734986
11876.285638	1498.710000	1910.531250	115.646721
11876.285638	1498.710000	1909.550781	-43.250824
11876.285638	1498.710000	1908.569336	-128.977463
11876.285638	1498.710000	1907.588867	7.029802
11876.285638	1498.710000	1906.607422	-0.698047
11876.285638	1498.710000	1905.625977	-20.581675
11876.285638	1498.710000	1904.644531	-20.960905
11876.285638	1498.710000	1903.662109	-14.020407
11876.285638	1498.710000	1902.680664	109.758530
11876.285638	1498.710000	1901.698242	70.474319
11876.285638	1498.710000	1900.715820	196.659164
11876.285638	1498.710000	1899.733398	89.301247
11876.285638	1498.710000	1898.750000	320.044952
11876.285638	1498.710000	1897.767578	13.354937
11876.285638	1498.710000	1896.784180	52.007416
11876.285638	1498.710000	1895.800781	-140.245895
11876.285638	1498.710000	1894.817383	-133.136673
11876.285638	1498.710000	1893.833984	119.385574
11876.285638	1498.710000	1892.850586	107.042236
11876.285638	1498.710000	1891.866211	-34.006718
11876.285638	1498.710000	1890.881836	43.562500
11876.285638	1498.710000	1889.897461	-141.093246
11876.285638	1498.710000	1888.913086	-158.172562
11876.285638	1498.710000	1887.927734	57.758892
11876.285638	1498.710000	1886.943359	-63.661964
11876.285638	1498.710000	1885.958008	81.843147
11876.285638	1498.710000	1884.972656	25.980612
11876.285638	1498.710000	1883.987305	11.379834
11876.285638	1498.710000	1883.001953	-78.368851
11876.285638	1498.710000	1882.015625	103.444275
11876.285638	1498.710000	1881.029297	42.820396
11876.285638	1498.710000	1880.042969	-17.770321
11876.285638	1498.710000	1879.056641	-155.860672
11876.285638	1498.710000	1878.070313	-226.060577
11876.285638	1498.710000	1877.083984	-54.026897
11876.285638	1498.710000	1876.096680	-37.027462
11876.285638	1498.710000	1875.109375	-174.975311
11876.285638	1498.710000	1874.122070	-44.175755
11876.285638	1498.710000	1873.134766	202.750443
11876.285638	1498.710000	1872.146484	76.953407
11876.285638	1498.710000	1871.159180	-94.755760
11876.285638	1498.710000	1870.170898	-278.491241
11876.285638	1498.710000	1869.182617	81.976357
11876.285638	1498.710000	1868.194336	2.253790
11876.285638	1498.710000	1867.205078	-169.299881
11876.285638	1498.710000	1866.216797	159.531616
11876.285638	1498.710000	1865.227539	50.846977
11876.285638	1498.710000	1864.238281	89.584549
11876.285638	1498.710000	1863.249023	-60.111889
11876.285638	1498.710000	1862.259766	-60.012600
11876.285638	1498.710000	1861.269531	-178.236115
11876.285638	1498.710000	1860.279297	56.065041
11876.285638	1498.710000	1859.290039	-45.244068
11876.285638	1498.710000	1858.298828	-16.199186
11876.285638	1498.710000	1857.308594	-25.776863
11876.285638	1498.710000	1856.318359	49.081104
11876.285638	1498.710000	1855.327148	58.779564
11876.285638	1498.710000	1854.335938	-68.992226
11876.285638	1498.710000	1853.344727	104.664360
11876.285638	1498.710000	1852.353516	-153.259293
11876.285638	1498.710000	1851.362305	119.147133
11876.285638	1498.710000	1850.370117	186.612656
11876.285638	1498.710000	1849.377930	70.935936
11876.285638	1498.710000	1848.385742	75.731384
11876.285638	1498.710000	1847.393555	99.780411
11876.285638	1498.710000	1846.401367	-39.933426
11876.285638	1498.710000	1845.408203	46.692844
11876.285638	1498.710000	1844.415039	-32.812599
11876.285638	1498.710000	1843.421875	-112.305069
11876.285638	1498.710000	1842.428711	262.972443
11876.285638	1498.710000	1841.435547	154.551300
11876.285638	1498.710000	1840.441406	17.289310
11876.285638	1498.710000	1839.448242	151.798523
11876.285638	1498.710000	1838.454102	14.549181
11876.285638	1498.710000	1837.459961	64.830315
11876.285638	1498.710000	1836.464844	-122.866600
11876.285638	1498.710000	1835.470703	-2.937145
11876.285638	1498.710000	1834.475586	64.067276
11876.285638	1498.710000	1833.480469	-99.573990
11876.285638	1498.710000	1832.485352	173.910721
11876.285638	1498.710000	1831.490234	31.869215
11876.285638	1498.710000	1830.495117	17.090740
11876.285638	1498.710000	1829.499023	83.896690
11876.285638	1498.710000	1828.502930	-14.936382
11876.285638	1498.710000	1827.506836	157.363190
11876.285638	1498.710000	1826.510742	192.831726
11876.285638	1498.710000	1825.513672	257.035645
11876.285638	1498.710000	1824.517578	11.845586
11876.285638	1498.710000	1823.520508	155.112915
11876.285638	1498.710000	1822.523438	96.938583
11876.285638	1498.710000	1821.526367	137.013260
11876.285638	1498.710000	1820.529297	155.472870
11876.285638	1498.710000	1819.531250	145.139526
11876.285638	1498.710000	1818.533203	115.610451
11876.285638	1498.710000	1817.535156	71.686646
11876.285638	1498.710000	1816.537109	123.515808
11876.285638	1498.710000	1815.539063	187.256378
11876.285638	1498.710000	1814.540039	241.357254
11876.285638	1498.710000	1813.541992	-89.874550
11876.285638	1498.710000	1812.542969	76.627441
11876.285638	1498.710000	1811.543945	111.457809
11876.285638	1498.710000	1810.543945	-11.617302
11876.285638	1498.710000	1809.544922	113.996574
11876.285638	1498.710000	1808.544922	64.992569
11876.285638	1498.710000	1807.544922	56.597286
11876.285638	1498.710000	1806.544922	165.262207
11876.285638	1498.710000	1805.544922	226.052078
11876.285638	1498.710000	1804.544922	200.769974
11876.285638	1498.710000	1803.543945	-65.789886
11876.285638	1498.710000	1802.542969	95.161842
11876.285638	1498.710000	1801.541992	-56.769993
11876.285638	1498.710000	1800.541016	161.311432
11876.285638	1498.710000	1799.539063	-19.318348
11876.285638	1498.710000	1798.538086	141.303360
11876.285638	1498.710000	1797.536133	115.718407
11876.285638	1498.710000	1796.534180	123.486992
11876.285638	1498.710000	1795.532227	66.807747
11876.285638	1498.710000	1794.529297	167.465759
11876.285638	1498.710000	1793.527344	74.932091
11876.285638	1498.710000	1792.524414	75.334068
11876.285638	1498.710000	1791.521484	-31.557859
11876.285638	1498.710000	1790.518555	9.257736
11876.285638	1498.710000	1789.514648	52.381145
11876.285638	1498.710000	1788.511719	-52.232597
11876.285638	1498.710000	1787.507813	69.352928
11876.285638	1498.710000	1786.503906	114.647751
11876.285638	1498.710000	1785.500000	114.641617
11876.285638	1498.710000	1784.496094	-87.716721
11876.285638	1498.710000	1783.491211	-6.905367
11876.285638	1498.710000	1782.486328	97.605492
11876.285638	1498.710000	1781.481445	73.574211
11876.285638	1498.710000	1780.476563	66.138046
11876.285638	1498.710000	1779.471680	-62.617474
11876.285638	1498.710000	1778.465820	-89.169716
11876.285638	1498.710000	1777.460938	24.458223
11876.285638	1498.710000	1776.455078	78.568817
11876.285638	1498.710000	1775.449219	-104.989281
11876.285638	1498.710000	1774.442383	98.645241
11876.285638	1498.710000	1773.436523	24.273031
11876.285638	1498.710000	1772.429688	127.948097
11876.285638	1498.710000	1771.422852	288.495941
11876.285638	1498.710000	1770.416016	31.166239
11876.285638	1498.710000	1769.409180	-19.668270
11876.285638	1498.710000	1768.402344	57.575127
11876.285638	1498.710000	1767.394531	54.064037
11876.285638	1498.710000	1766.386719	254.461227
11876.285638	1498.710000	1765.378906	70.558434
11876.285638	1498.710000	1764.371094	81.071228
11876.285638	1498.710000	1763.362305	-91.014633
11876.285638	1498.710000	1762.354492	82.918411
11876.285638	1498.710000	1761.345703	237.758102
11876.285638	1498.710000	1760.336914	127.132477
11876.285638	1498.710000	1759.328125	21.218124
11876.285638	1498.710000	1758.318359	107.093300
11876.285638	1498.710000	1757.308594	-95.996506
11876.285638	1498.710000	1756.299805	-78.915916
11876.285638	1498.710000	1755.290039	63.525818
11876.285638	1498.710000	1754.279297	-35.531010
11876.285638	1498.710000	1753.269531	-210.324997
11876.285638	1498.710000	1752.258789	109.258080
11876.285638	1498.710000	1751.249023	-37.256420
11876.285638	1498.710000	1750.238281	-82.112930
11876.285638	1498.710000	1749.226563	-207.408386
11876.285638	1498.710000	1748.215820	-136.535950
11876.285638	1498.710000	1747.204102	50.032055
11876.285638	1498.710000	1746.193359	89.971123
11876.285638	1498.710000	1745.181641	-7.195208
11876.285638	1498.710000	1744.168945	221.537735
11876.285638	1498.710000	1743.157227	36.869297
11876.285638	1498.710000	1742.144531	156.760162
11876.285638	1498.710000	1741.132813	31.045721
11876.285638	1498.710000	1740.120117	-118.297974
11876.285638	1498.710000	1739.106445	32.011162
11876.285638	1498.710000	1738.093750	-79.670563
11876.285638	1498.710000	1737.080078	-0.329344
11876.285638	1498.710000	1736.067383	-119.178902
11876.285638	1498.710000	1735.053711	-275.784760
11876.285638	1498.710000	1734.040039	-85.867493
11876.285638	1498.710000	1733.025391	-103.508331
11876.285638	1498.710000	1732.011719	-189.545425
11876.285638	1498.710000	1730.997070	-51.803600
11876.285638	1498.710000	1729.982422	-62.586071
11876.285638	1498.710000	1728.967773	-111.116310
11876.285638	1498.710000	1727.952148	66.343468
11876.285638	1498.710000	1726.937500	5.896272
11876.285638	1498.710000	1725.921875	6.592668
11876.285638	1498.710000	1724.906250	-56.319408
11876.285638	1498.710000	1723.890625	59.540138
11876.285638	1498.710000	1722.875000	17.674471
11876.285638	1498.710000	1721.858398	83.939232
11876.285638	1498.710000	1720.841797	-23.902689
11876.285638	1498.710000	1719.825195	251.451691
11876.285638	1498.710000	1718.808594	89.417694
11876.285638	1498.710000	1717.791992	-107.876480
11876.285638	1498.710000	1716.774414	190.621841
11876.285638	1498.710000	1715.756836	103.657333
11876.285638	1498.710000	1714.739258	-121.922989
11876.285638	1498.710000	1713.721680	-206.580734
11876.285638	1498.710000	1712.704102	-143.354614
11876.285638	1498.710000	1711.685547	-178.820160
11876.285638	1498.710000	1710.667969	142.415894
11876.285638	1498.710000	1709.649414	-97.375061
11876.285638	1498.710000	1708.630859	153.198669
11876.285638	1498.710000	1707.611328	-65.530426
11876.285638	1498.710000	1706.592773	91.002304
11876.285638	1498.710000	1705.573242	-17.556173
11876.285638	1498.710000	1704.553711	16.865791
11876.285638	1498.710000	1703.534180	65.273506
11876.285638	1498.710000	1702.513672	-36.387505
11876.285638	1498.710000	1701.494141	-16.230650
11876.285638	1498.710000	1700.473633	158.454956
11876.285638	1498.710000	1699.453125	91.776443
11876.285638	1498.710000	1698.432617	102.335861
11876.285638	1498.710000	1697.412109	61.324127
11876.285638	1498.710000	1696.390625	144.317352
11876.285638	1498.710000	1695.369141	75.099686
11876.285638	1498.710000	1694.347656	-99.443588
11876.285638	1498.710000	1693.326172	97.981033
11876.285638	1498.710000	1692.304688	-15.805616
11876.285638	1498.710000	1691.282227	-36.077248
11876.285638	1498.710000	1690.260742	182.088211
11876.285638	1498.710000	1689.238281	187.383942
11876.285638	1498.710000	1688.214844	43.035950
11876.285638	1498.710000	1687.192383	-80.274559
11876.285638	1498.710000	1686.168945	144.495911
11876.285638	1498.710000	1685.146484	271.029755
11876.285638	1498.710000	1684.123047	65.835114
11876.285638	1498.710000	1683.099609	115.166626
11876.285638	1498.710000	1682.075195	89.715050
11876.285638	1498.710000	1681.051758	-29.130758
11876.285638	1498.710000	1680.027344	13.021781
11876.285638	1498.710000	1679.002930	197.423615
11876.285638	1498.710000	1677.978516	92.457207
11876.285638	1498.710000	1676.953125	148.391281
11876.285638	1498.710000	1675.928711	29.383722
11876.285638	1498.710000	1674.903320	264.717346
11876.285638	1498.710000	1673.877930	126.979279
11876.285638	1498.710000	1672.852539	224.613571
11876.285638	1498.710000	1671.826172	228.957123
11876.285638	1498.710000	1670.800781	216.954407
11876.285638	1498.710000	1669.774414	176.952316
11876.285638	1498.710000	1668.748047	246.363403
11876.285638	1498.710000	1667.721680	252.843689
11876.285638	1498.710000	1666.694336	156.849045
11876.285638	1498.710000	1665.667969	312.200348
11876.285638	1498.710000	1664.640625	232.432587
11876.285638	1498.710000	1663.613281	96.821884
11876.285638	1498.710000	1662.585938	270.566254
11876.285638	1498.710000	1661.557617	211.647751
11876.285638	1498.710000	1660.530273	480.547852
11876.285638	1498.710000	1659.501953	423.857880
11876.285638	1498.710000	1658.473633	209.112885
11876.285638	1498.710000	1657.444336	233.739212
11876.285638	1498.710000	1656.416016	360.549652
11876.285638	1498.710000	1655.386719	268.927246
11876.285638	1498.710000	1654.358398	263.239624
11876.285638	1498.710000	1653.328125	431.638947
11876.285638	1498.710000	1652.298828	342.273499
11876.285638	1498.710000	1651.269531	531.424011
11876.285638	1498.710000	1650.239258	465.204193
11876.285638	1498.710000	1649.208984	582.262695
11876.285638	1498.710000	1648.178711	492.800537
11876.285638	1498.710000	1647.148438	602.791260
11876.285638	1498.710000	1646.117188	508.653076
11876.285638	1498.710000	1645.086914	523.492432
11876.285638	1498.710000	1644.055664	582.326599
11876.285638	1498.710000	1643.024414	743.075989
11876.285638	1498.710000	1641.992188	933.847229
11876.285638	1498.710000	1640.960938	862.769348
11876.285638	1498.710000	1639.928711	919.065674
11876.285638	1498.710000	1638.896484	961.424133
11876.285638	1498.710000	1637.864258	725.930603
11876.285638	1498.710000	1636.832031	1242.772461
11876.285638	1498.710000	1635.798828	974.864990
11876.285638	1498.710000	1634.766602	887.524780
11876.285638	1498.710000	1633.733398	1084.728027
11876.285638	1498.710000	1632.699219	930.271362
11876.285638	1498.710000	1631.666016	1136.604492
11876.285638	1498.710000	1630.632813	836.520447
11876.285638	1498.710000	1629.598633	982.650330
11876.285638	1498.710000	1628.564453	964.623657
11876.285638	1498.710000	1627.530273	946.590759
11876.285638	1498.710000	1626.495117	921.611389
11876.285638	1498.710000	1625.460938	1289.294434
11876.285638	1498.710000	1624.425781	783.905701
11876.285638	1498.710000	1623.390625	987.514465
11876.285638	1498.710000	1622.355469	914.029724
11876.285638	1498.710000	1621.319336	976.723145
11876.285638	1498.710000	1620.284180	1039.395996
11876.285638	1498.710000	1619.248047	1060.500854
11876.285638	1498.710000	1618.211914	1000.861633
11876.285638	1498.710000	1617.174805	1104.967651
11876.285638	1498.710000	1616.138672	1183.677002
11876.285638	1498.710000	1615.101563	1349.942017
11876.285638	1498.710000	1614.065430	1301.805420
11876.285638	1498.710000	1613.027344	1249.057617
11876.285638	1498.710000	1611.990234	1244.723511
11876.285638	1498.710000	1610.953125	1125.219116
11876.285638	1498.710000	1609.915039	1215.326050
11876.285638	1498.710000	1608.876953	1337.637573
11876.285638	1498.710000	1607.838867	1234.299316
11876.285638	1498.710000	1606.800781	1414.109131
11876.285638	1498.710000	1605.761719	1264.772095
11876.285638	1498.710000	1604.723633	1580.263428
11876.285638	1498.710000	1603.684570	1490.776001
11876.285638	1498.710000	1602.644531	1440.418945
11876.285638	1498.710000	1601.605469	1272.831665
11876.285638	1498.710000	1600.566406	1245.557007
11876.285638	1498.710000	1599.526367	1429.757568
11876.285638	1498.710000	1598.486328	1632.282593
11876.285638	1498.710000	1597.446289	1485.505981
11876.285638	1498.710000	1596.405273	1550.128418
11876.285638	1498.710000	1595.365234	1660.687012
11876.285638	1498.710000	1594.324219	1638.024292
11876.285638	1498.710000	1593.283203	1739.361694
11876.285638	1498.710000	1592.242188	1358.650269
11876.285638	1498.710000	1591.200195	1414.131470
11876.285638	1498.710000	1590.159180	1437.498901
11876.285638	1498.710000	1589.117188	1557.217285
11876.285638	1498.710000	1588.075195	1736.542725
11876.285638	1498.710000	1587.032227	1619.998413
11876.285638	1498.710000	1585.990234	1753.435669
11876.285638	1498.710000	1584.947266	1522.370239
11876.285638	1498.710000	1583.904297	1639.771240
11876.285638	1498.710000	1582.861328	1690.704956
