#X		#Y		#Wave		#Intensity
11926.897872	1408.121667	1999.980469	-38.566704
11926.897872	1408.121667	1999.016602	-143.886581
11926.897872	1408.121667	1998.052734	12.243764
11926.897872	1408.121667	1997.087891	91.432709
11926.897872	1408.121667	1996.123047	51.603107
11926.897872	1408.121667	1995.158203	-102.223312
11926.897872	1408.121667	1994.193359	-30.666441
11926.897872	1408.121667	1993.228516	-95.388695
11926.897872	1408.121667	1992.262695	174.096756
11926.897872	1408.121667	1991.297852	-24.417746
11926.897872	1408.121667	1990.332031	49.331234
11926.897872	1408.121667	1989.366211	174.965485
11926.897872	1408.121667	1988.399414	-90.385429
11926.897872	1408.121667	1987.433594	84.602867
11926.897872	1408.121667	1986.466797	-15.030828
11926.897872	1408.121667	1985.500977	16.376360
11926.897872	1408.121667	1984.534180	72.450882
11926.897872	1408.121667	1983.567383	46.896194
11926.897872	1408.121667	1982.599609	-10.815303
11926.897872	1408.121667	1981.632813	-117.960938
11926.897872	1408.121667	1980.665039	66.393898
11926.897872	1408.121667	1979.697266	45.644615
11926.897872	1408.121667	1978.729492	-49.215389
11926.897872	1408.121667	1977.761719	85.537743
11926.897872	1408.121667	1976.792969	146.153381
11926.897872	1408.121667	1975.825195	93.184074
11926.897872	1408.121667	1974.856445	-53.564564
11926.897872	1408.121667	1973.887695	31.620310
11926.897872	1408.121667	1972.918945	-16.455549
11926.897872	1408.121667	1971.949219	-2.885805
11926.897872	1408.121667	1970.980469	114.212341
11926.897872	1408.121667	1970.010742	117.837936
11926.897872	1408.121667	1969.041016	8.055420
11926.897872	1408.121667	1968.071289	196.477554
11926.897872	1408.121667	1967.101563	276.394348
11926.897872	1408.121667	1966.130859	-13.258383
11926.897872	1408.121667	1965.161133	64.161118
11926.897872	1408.121667	1964.190430	82.429802
11926.897872	1408.121667	1963.219727	-2.735548
11926.897872	1408.121667	1962.249023	81.964241
11926.897872	1408.121667	1961.277344	46.016548
11926.897872	1408.121667	1960.306641	-66.217056
11926.897872	1408.121667	1959.334961	200.452682
11926.897872	1408.121667	1958.363281	19.325077
11926.897872	1408.121667	1957.391602	113.694778
11926.897872	1408.121667	1956.419922	13.763667
11926.897872	1408.121667	1955.447266	71.194214
11926.897872	1408.121667	1954.474609	25.355532
11926.897872	1408.121667	1953.501953	149.089081
11926.897872	1408.121667	1952.529297	-22.081057
11926.897872	1408.121667	1951.556641	108.961914
11926.897872	1408.121667	1950.583984	-5.668613
11926.897872	1408.121667	1949.610352	81.098831
11926.897872	1408.121667	1948.636719	145.726593
11926.897872	1408.121667	1947.663086	-67.066521
11926.897872	1408.121667	1946.689453	9.818632
11926.897872	1408.121667	1945.715820	8.143298
11926.897872	1408.121667	1944.741211	170.838211
11926.897872	1408.121667	1943.767578	34.207401
11926.897872	1408.121667	1942.792969	-26.352539
11926.897872	1408.121667	1941.818359	-94.252869
11926.897872	1408.121667	1940.842773	56.055229
11926.897872	1408.121667	1939.868164	69.039833
11926.897872	1408.121667	1938.892578	99.168716
11926.897872	1408.121667	1937.916992	256.691711
11926.897872	1408.121667	1936.941406	-68.447426
11926.897872	1408.121667	1935.965820	-57.917316
11926.897872	1408.121667	1934.990234	35.864899
11926.897872	1408.121667	1934.013672	234.888336
11926.897872	1408.121667	1933.037109	29.928185
11926.897872	1408.121667	1932.060547	1.259153
11926.897872	1408.121667	1931.083984	33.773129
11926.897872	1408.121667	1930.107422	-48.715164
11926.897872	1408.121667	1929.129883	-131.175186
11926.897872	1408.121667	1928.153320	26.066141
11926.897872	1408.121667	1927.175781	43.871864
11926.897872	1408.121667	1926.198242	81.227547
11926.897872	1408.121667	1925.219727	-6.090234
11926.897872	1408.121667	1924.242188	-68.937729
11926.897872	1408.121667	1923.263672	83.252159
11926.897872	1408.121667	1922.285156	88.811134
11926.897872	1408.121667	1921.306641	-22.870007
11926.897872	1408.121667	1920.328125	-127.184174
11926.897872	1408.121667	1919.349609	2.928345
11926.897872	1408.121667	1918.370117	-86.705650
11926.897872	1408.121667	1917.391602	-44.511337
11926.897872	1408.121667	1916.412109	51.350277
11926.897872	1408.121667	1915.431641	-38.242279
11926.897872	1408.121667	1914.452148	30.751106
11926.897872	1408.121667	1913.472656	33.872036
11926.897872	1408.121667	1912.492188	-155.637695
11926.897872	1408.121667	1911.511719	23.046169
11926.897872	1408.121667	1910.531250	11.543335
11926.897872	1408.121667	1909.550781	-12.138827
11926.897872	1408.121667	1908.569336	-52.867935
11926.897872	1408.121667	1907.588867	69.636780
11926.897872	1408.121667	1906.607422	-61.208126
11926.897872	1408.121667	1905.625977	-65.374809
11926.897872	1408.121667	1904.644531	49.761242
11926.897872	1408.121667	1903.662109	-10.410775
11926.897872	1408.121667	1902.680664	-58.390427
11926.897872	1408.121667	1901.698242	-137.984802
11926.897872	1408.121667	1900.715820	35.471577
11926.897872	1408.121667	1899.733398	96.972351
11926.897872	1408.121667	1898.750000	-92.043533
11926.897872	1408.121667	1897.767578	76.446793
11926.897872	1408.121667	1896.784180	6.629375
11926.897872	1408.121667	1895.800781	-48.577412
11926.897872	1408.121667	1894.817383	-33.288372
11926.897872	1408.121667	1893.833984	54.887062
11926.897872	1408.121667	1892.850586	-70.744537
11926.897872	1408.121667	1891.866211	46.550678
11926.897872	1408.121667	1890.881836	-13.466177
11926.897872	1408.121667	1889.897461	118.342514
11926.897872	1408.121667	1888.913086	111.738373
11926.897872	1408.121667	1887.927734	112.417152
11926.897872	1408.121667	1886.943359	23.315195
11926.897872	1408.121667	1885.958008	150.165878
11926.897872	1408.121667	1884.972656	143.559875
11926.897872	1408.121667	1883.987305	156.357895
11926.897872	1408.121667	1883.001953	-27.251181
11926.897872	1408.121667	1882.015625	-87.155151
11926.897872	1408.121667	1881.029297	182.598953
11926.897872	1408.121667	1880.042969	-29.994377
11926.897872	1408.121667	1879.056641	40.969517
11926.897872	1408.121667	1878.070313	19.852804
11926.897872	1408.121667	1877.083984	-170.795822
11926.897872	1408.121667	1876.096680	23.648029
11926.897872	1408.121667	1875.109375	48.542587
11926.897872	1408.121667	1874.122070	-37.922848
11926.897872	1408.121667	1873.134766	47.474716
11926.897872	1408.121667	1872.146484	-2.666208
11926.897872	1408.121667	1871.159180	140.750824
11926.897872	1408.121667	1870.170898	-44.847015
11926.897872	1408.121667	1869.182617	50.151875
11926.897872	1408.121667	1868.194336	157.201935
11926.897872	1408.121667	1867.205078	-62.146702
11926.897872	1408.121667	1866.216797	-25.214556
11926.897872	1408.121667	1865.227539	-130.875290
11926.897872	1408.121667	1864.238281	-48.045113
11926.897872	1408.121667	1863.249023	-32.887287
11926.897872	1408.121667	1862.259766	-179.555801
11926.897872	1408.121667	1861.269531	120.550735
11926.897872	1408.121667	1860.279297	63.228527
11926.897872	1408.121667	1859.290039	-37.525055
11926.897872	1408.121667	1858.298828	148.944595
11926.897872	1408.121667	1857.308594	139.894119
11926.897872	1408.121667	1856.318359	126.017204
11926.897872	1408.121667	1855.327148	59.075832
11926.897872	1408.121667	1854.335938	228.486832
11926.897872	1408.121667	1853.344727	118.141617
11926.897872	1408.121667	1852.353516	17.474073
11926.897872	1408.121667	1851.362305	3.606092
11926.897872	1408.121667	1850.370117	-39.179840
11926.897872	1408.121667	1849.377930	60.192287
11926.897872	1408.121667	1848.385742	-59.683964
11926.897872	1408.121667	1847.393555	-1.300483
11926.897872	1408.121667	1846.401367	71.501236
11926.897872	1408.121667	1845.408203	-17.032490
11926.897872	1408.121667	1844.415039	188.117264
11926.897872	1408.121667	1843.421875	51.448822
11926.897872	1408.121667	1842.428711	-41.865135
11926.897872	1408.121667	1841.435547	172.773346
11926.897872	1408.121667	1840.441406	50.592972
11926.897872	1408.121667	1839.448242	2.998544
11926.897872	1408.121667	1838.454102	75.628822
11926.897872	1408.121667	1837.459961	28.030107
11926.897872	1408.121667	1836.464844	-26.769600
11926.897872	1408.121667	1835.470703	-79.154495
11926.897872	1408.121667	1834.475586	12.621045
11926.897872	1408.121667	1833.480469	49.105804
11926.897872	1408.121667	1832.485352	75.960739
11926.897872	1408.121667	1831.490234	225.254501
11926.897872	1408.121667	1830.495117	199.231552
11926.897872	1408.121667	1829.499023	33.994549
11926.897872	1408.121667	1828.502930	12.796407
11926.897872	1408.121667	1827.506836	284.314697
11926.897872	1408.121667	1826.510742	140.713287
11926.897872	1408.121667	1825.513672	107.483002
11926.897872	1408.121667	1824.517578	184.561615
11926.897872	1408.121667	1823.520508	5.064208
11926.897872	1408.121667	1822.523438	118.066521
11926.897872	1408.121667	1821.526367	3.335488
11926.897872	1408.121667	1820.529297	216.911453
11926.897872	1408.121667	1819.531250	183.635284
11926.897872	1408.121667	1818.533203	112.035408
11926.897872	1408.121667	1817.535156	90.742035
11926.897872	1408.121667	1816.537109	76.627068
11926.897872	1408.121667	1815.539063	67.293388
11926.897872	1408.121667	1814.540039	53.162357
11926.897872	1408.121667	1813.541992	141.923981
11926.897872	1408.121667	1812.542969	8.131085
11926.897872	1408.121667	1811.543945	-113.663864
11926.897872	1408.121667	1810.543945	22.871101
11926.897872	1408.121667	1809.544922	-108.471870
11926.897872	1408.121667	1808.544922	97.315544
11926.897872	1408.121667	1807.544922	78.323456
11926.897872	1408.121667	1806.544922	49.765587
11926.897872	1408.121667	1805.544922	100.054405
11926.897872	1408.121667	1804.544922	114.476402
11926.897872	1408.121667	1803.543945	248.301453
11926.897872	1408.121667	1802.542969	23.856579
11926.897872	1408.121667	1801.541992	35.853062
11926.897872	1408.121667	1800.541016	-16.622784
11926.897872	1408.121667	1799.539063	-2.266938
11926.897872	1408.121667	1798.538086	71.724785
11926.897872	1408.121667	1797.536133	-30.874424
11926.897872	1408.121667	1796.534180	112.237633
11926.897872	1408.121667	1795.532227	40.642387
11926.897872	1408.121667	1794.529297	-59.555408
11926.897872	1408.121667	1793.527344	102.506683
11926.897872	1408.121667	1792.524414	-16.763981
11926.897872	1408.121667	1791.521484	23.659962
11926.897872	1408.121667	1790.518555	37.843853
11926.897872	1408.121667	1789.514648	92.502243
11926.897872	1408.121667	1788.511719	139.980164
11926.897872	1408.121667	1787.507813	-67.372803
11926.897872	1408.121667	1786.503906	68.173943
11926.897872	1408.121667	1785.500000	67.971886
11926.897872	1408.121667	1784.496094	53.474560
11926.897872	1408.121667	1783.491211	127.004845
11926.897872	1408.121667	1782.486328	-68.337463
11926.897872	1408.121667	1781.481445	-6.737972
11926.897872	1408.121667	1780.476563	80.980499
11926.897872	1408.121667	1779.471680	71.165054
11926.897872	1408.121667	1778.465820	-38.507473
11926.897872	1408.121667	1777.460938	-34.069633
11926.897872	1408.121667	1776.455078	-100.940681
11926.897872	1408.121667	1775.449219	-51.387386
11926.897872	1408.121667	1774.442383	119.274353
11926.897872	1408.121667	1773.436523	118.859299
11926.897872	1408.121667	1772.429688	23.445639
11926.897872	1408.121667	1771.422852	155.959549
11926.897872	1408.121667	1770.416016	105.638802
11926.897872	1408.121667	1769.409180	-13.501020
11926.897872	1408.121667	1768.402344	-44.823704
11926.897872	1408.121667	1767.394531	94.648216
11926.897872	1408.121667	1766.386719	-19.731749
11926.897872	1408.121667	1765.378906	122.018326
11926.897872	1408.121667	1764.371094	100.106438
11926.897872	1408.121667	1763.362305	33.145256
11926.897872	1408.121667	1762.354492	89.432350
11926.897872	1408.121667	1761.345703	39.050480
11926.897872	1408.121667	1760.336914	24.205816
11926.897872	1408.121667	1759.328125	-135.136795
11926.897872	1408.121667	1758.318359	-7.888170
11926.897872	1408.121667	1757.308594	-8.563287
11926.897872	1408.121667	1756.299805	92.539276
11926.897872	1408.121667	1755.290039	-21.797705
11926.897872	1408.121667	1754.279297	60.299286
11926.897872	1408.121667	1753.269531	61.907921
11926.897872	1408.121667	1752.258789	37.475937
11926.897872	1408.121667	1751.249023	162.034210
11926.897872	1408.121667	1750.238281	85.536751
11926.897872	1408.121667	1749.226563	-50.054031
11926.897872	1408.121667	1748.215820	-79.243301
11926.897872	1408.121667	1747.204102	28.626017
11926.897872	1408.121667	1746.193359	13.574704
11926.897872	1408.121667	1745.181641	-105.432121
11926.897872	1408.121667	1744.168945	-99.233803
11926.897872	1408.121667	1743.157227	-93.053101
11926.897872	1408.121667	1742.144531	80.735664
11926.897872	1408.121667	1741.132813	-17.017931
11926.897872	1408.121667	1740.120117	-10.909947
11926.897872	1408.121667	1739.106445	51.808174
11926.897872	1408.121667	1738.093750	-22.345425
11926.897872	1408.121667	1737.080078	-25.727633
11926.897872	1408.121667	1736.067383	-29.122978
11926.897872	1408.121667	1735.053711	-39.610077
11926.897872	1408.121667	1734.040039	-76.040367
11926.897872	1408.121667	1733.025391	-62.980267
11926.897872	1408.121667	1732.011719	-82.930481
11926.897872	1408.121667	1730.997070	-48.702637
11926.897872	1408.121667	1729.982422	44.384609
11926.897872	1408.121667	1728.967773	7.888484
11926.897872	1408.121667	1727.952148	-42.739899
11926.897872	1408.121667	1726.937500	-6.256943
11926.897872	1408.121667	1725.921875	-56.895313
11926.897872	1408.121667	1724.906250	-6.337831
11926.897872	1408.121667	1723.890625	-33.459866
11926.897872	1408.121667	1722.875000	129.958435
11926.897872	1408.121667	1721.858398	-104.186104
11926.897872	1408.121667	1720.841797	9.768024
11926.897872	1408.121667	1719.825195	-24.453962
11926.897872	1408.121667	1718.808594	-124.495491
11926.897872	1408.121667	1717.791992	-90.554169
11926.897872	1408.121667	1716.774414	-89.538879
11926.897872	1408.121667	1715.756836	-46.251911
11926.897872	1408.121667	1714.739258	34.584213
11926.897872	1408.121667	1713.721680	-67.797447
11926.897872	1408.121667	1712.704102	31.766836
11926.897872	1408.121667	1711.685547	63.199196
11926.897872	1408.121667	1710.667969	-102.541458
11926.897872	1408.121667	1709.649414	39.165352
11926.897872	1408.121667	1708.630859	-67.884422
11926.897872	1408.121667	1707.611328	92.496948
11926.897872	1408.121667	1706.592773	-98.977615
11926.897872	1408.121667	1705.573242	-77.019753
11926.897872	1408.121667	1704.553711	76.197800
11926.897872	1408.121667	1703.534180	-44.889240
11926.897872	1408.121667	1702.513672	-191.722580
11926.897872	1408.121667	1701.494141	78.539230
11926.897872	1408.121667	1700.473633	60.551670
11926.897872	1408.121667	1699.453125	-76.886757
11926.897872	1408.121667	1698.432617	218.915543
11926.897872	1408.121667	1697.412109	-0.466049
11926.897872	1408.121667	1696.390625	-6.771625
11926.897872	1408.121667	1695.369141	-6.065898
11926.897872	1408.121667	1694.347656	-17.070841
11926.897872	1408.121667	1693.326172	39.759155
11926.897872	1408.121667	1692.304688	169.062958
11926.897872	1408.121667	1691.282227	113.563820
11926.897872	1408.121667	1690.260742	-12.063051
11926.897872	1408.121667	1689.238281	-46.489059
11926.897872	1408.121667	1688.214844	180.843597
11926.897872	1408.121667	1687.192383	90.293312
11926.897872	1408.121667	1686.168945	11.445939
11926.897872	1408.121667	1685.146484	168.535873
11926.897872	1408.121667	1684.123047	178.427795
11926.897872	1408.121667	1683.099609	113.590324
11926.897872	1408.121667	1682.075195	11.415099
11926.897872	1408.121667	1681.051758	140.337265
11926.897872	1408.121667	1680.027344	70.848389
11926.897872	1408.121667	1679.002930	-54.616550
11926.897872	1408.121667	1677.978516	81.214157
11926.897872	1408.121667	1676.953125	49.064651
11926.897872	1408.121667	1675.928711	98.533241
11926.897872	1408.121667	1674.903320	178.278915
11926.897872	1408.121667	1673.877930	227.685898
11926.897872	1408.121667	1672.852539	69.662651
11926.897872	1408.121667	1671.826172	86.436218
11926.897872	1408.121667	1670.800781	47.291489
11926.897872	1408.121667	1669.774414	126.933800
11926.897872	1408.121667	1668.748047	162.296249
11926.897872	1408.121667	1667.721680	279.124207
11926.897872	1408.121667	1666.694336	309.774078
11926.897872	1408.121667	1665.667969	165.866776
11926.897872	1408.121667	1664.640625	168.594910
11926.897872	1408.121667	1663.613281	41.041965
11926.897872	1408.121667	1662.585938	301.957733
11926.897872	1408.121667	1661.557617	241.854385
11926.897872	1408.121667	1660.530273	195.722977
11926.897872	1408.121667	1659.501953	98.463097
11926.897872	1408.121667	1658.473633	145.330673
11926.897872	1408.121667	1657.444336	331.593262
11926.897872	1408.121667	1656.416016	187.889343
11926.897872	1408.121667	1655.386719	69.786034
11926.897872	1408.121667	1654.358398	130.545395
11926.897872	1408.121667	1653.328125	56.606285
11926.897872	1408.121667	1652.298828	221.800385
11926.897872	1408.121667	1651.269531	301.053955
11926.897872	1408.121667	1650.239258	431.324005
11926.897872	1408.121667	1649.208984	290.095947
11926.897872	1408.121667	1648.178711	299.695740
11926.897872	1408.121667	1647.148438	348.716949
11926.897872	1408.121667	1646.117188	430.178070
11926.897872	1408.121667	1645.086914	469.881683
11926.897872	1408.121667	1644.055664	583.736755
11926.897872	1408.121667	1643.024414	549.237427
11926.897872	1408.121667	1641.992188	479.995575
11926.897872	1408.121667	1640.960938	457.114014
11926.897872	1408.121667	1639.928711	455.083221
11926.897872	1408.121667	1638.896484	543.362244
11926.897872	1408.121667	1637.864258	365.370850
11926.897872	1408.121667	1636.832031	460.580414
11926.897872	1408.121667	1635.798828	319.702911
11926.897872	1408.121667	1634.766602	373.242065
11926.897872	1408.121667	1633.733398	299.528229
11926.897872	1408.121667	1632.699219	276.726746
11926.897872	1408.121667	1631.666016	249.314896
11926.897872	1408.121667	1630.632813	270.469513
11926.897872	1408.121667	1629.598633	453.423553
11926.897872	1408.121667	1628.564453	340.493439
11926.897872	1408.121667	1627.530273	359.317627
11926.897872	1408.121667	1626.495117	410.479248
11926.897872	1408.121667	1625.460938	491.655243
11926.897872	1408.121667	1624.425781	249.503174
11926.897872	1408.121667	1623.390625	321.452271
11926.897872	1408.121667	1622.355469	192.550186
11926.897872	1408.121667	1621.319336	382.196930
11926.897872	1408.121667	1620.284180	521.014160
11926.897872	1408.121667	1619.248047	415.235840
11926.897872	1408.121667	1618.211914	535.551758
11926.897872	1408.121667	1617.174805	607.396729
11926.897872	1408.121667	1616.138672	561.633972
11926.897872	1408.121667	1615.101563	310.728516
11926.897872	1408.121667	1614.065430	421.783295
11926.897872	1408.121667	1613.027344	518.972656
11926.897872	1408.121667	1611.990234	295.894318
11926.897872	1408.121667	1610.953125	367.753052
11926.897872	1408.121667	1609.915039	425.773254
11926.897872	1408.121667	1608.876953	446.939575
11926.897872	1408.121667	1607.838867	470.409607
11926.897872	1408.121667	1606.800781	459.356415
11926.897872	1408.121667	1605.761719	287.231445
11926.897872	1408.121667	1604.723633	372.870972
11926.897872	1408.121667	1603.684570	518.294250
11926.897872	1408.121667	1602.644531	389.987061
11926.897872	1408.121667	1601.605469	402.008118
11926.897872	1408.121667	1600.566406	351.964203
11926.897872	1408.121667	1599.526367	472.039703
11926.897872	1408.121667	1598.486328	445.005432
11926.897872	1408.121667	1597.446289	420.291748
11926.897872	1408.121667	1596.405273	480.593933
11926.897872	1408.121667	1595.365234	366.337799
11926.897872	1408.121667	1594.324219	536.875427
11926.897872	1408.121667	1593.283203	643.077026
11926.897872	1408.121667	1592.242188	540.373169
11926.897872	1408.121667	1591.200195	297.730988
11926.897872	1408.121667	1590.159180	452.145081
11926.897872	1408.121667	1589.117188	475.752289
11926.897872	1408.121667	1588.075195	655.328613
11926.897872	1408.121667	1587.032227	490.879456
11926.897872	1408.121667	1585.990234	610.804932
11926.897872	1408.121667	1584.947266	487.721130
11926.897872	1408.121667	1583.904297	529.710022
11926.897872	1408.121667	1582.861328	571.699585
11926.897872	1408.121667	1581.818359	540.381592
11926.897872	1408.121667	1580.775391	467.865082
