#X		#Y		#Wave		#Intensity
12239.736170	148.405000	1999.980469	5.893477
12239.736170	148.405000	1999.016602	-131.306671
12239.736170	148.405000	1998.052734	-118.496368
12239.736170	148.405000	1997.087891	62.692242
12239.736170	148.405000	1996.123047	159.444855
12239.736170	148.405000	1995.158203	0.883780
12239.736170	148.405000	1994.193359	45.352924
12239.736170	148.405000	1993.228516	211.025269
12239.736170	148.405000	1992.262695	178.453827
12239.736170	148.405000	1991.297852	-20.068924
12239.736170	148.405000	1990.332031	137.759537
12239.736170	148.405000	1989.366211	137.056641
12239.736170	148.405000	1988.399414	64.503662
12239.736170	148.405000	1987.433594	-27.913351
12239.736170	148.405000	1986.466797	-36.310860
12239.736170	148.405000	1985.500977	197.514755
12239.736170	148.405000	1984.534180	-26.190165
12239.736170	148.405000	1983.567383	61.530033
12239.736170	148.405000	1982.599609	42.865108
12239.736170	148.405000	1981.632813	177.308823
12239.736170	148.405000	1980.665039	104.110985
12239.736170	148.405000	1979.697266	11.099057
12239.736170	148.405000	1978.729492	48.920448
12239.736170	148.405000	1977.761719	-4.700812
12239.736170	148.405000	1976.792969	148.975082
12239.736170	148.405000	1975.825195	307.457733
12239.736170	148.405000	1974.856445	241.260956
12239.736170	148.405000	1973.887695	81.269539
12239.736170	148.405000	1972.918945	91.470490
12239.736170	148.405000	1971.949219	62.142647
12239.736170	148.405000	1970.980469	5.640844
12239.736170	148.405000	1970.010742	-58.296902
12239.736170	148.405000	1969.041016	146.396500
12239.736170	148.405000	1968.071289	-48.270638
12239.736170	148.405000	1967.101563	-35.951660
12239.736170	148.405000	1966.130859	-114.839012
12239.736170	148.405000	1965.161133	18.070568
12239.736170	148.405000	1964.190430	165.655823
12239.736170	148.405000	1963.219727	27.537165
12239.736170	148.405000	1962.249023	-21.957951
12239.736170	148.405000	1961.277344	150.024506
12239.736170	148.405000	1960.306641	56.146278
12239.736170	148.405000	1959.334961	149.239105
12239.736170	148.405000	1958.363281	-3.721046
12239.736170	148.405000	1957.391602	22.868965
12239.736170	148.405000	1956.419922	19.907177
12239.736170	148.405000	1955.447266	137.371719
12239.736170	148.405000	1954.474609	50.748821
12239.736170	148.405000	1953.501953	155.811432
12239.736170	148.405000	1952.529297	29.842737
12239.736170	148.405000	1951.556641	164.289917
12239.736170	148.405000	1950.583984	156.203644
12239.736170	148.405000	1949.610352	138.269714
12239.736170	148.405000	1948.636719	-29.451406
12239.736170	148.405000	1947.663086	63.071339
12239.736170	148.405000	1946.689453	-13.810702
12239.736170	148.405000	1945.715820	171.876846
12239.736170	148.405000	1944.741211	4.184237
12239.736170	148.405000	1943.767578	140.701477
12239.736170	148.405000	1942.792969	159.428741
12239.736170	148.405000	1941.818359	153.611984
12239.736170	148.405000	1940.842773	160.037170
12239.736170	148.405000	1939.868164	65.952011
12239.736170	148.405000	1938.892578	111.573250
12239.736170	148.405000	1937.916992	100.809906
12239.736170	148.405000	1936.941406	55.743042
12239.736170	148.405000	1935.965820	-77.492607
12239.736170	148.405000	1934.990234	36.643932
12239.736170	148.405000	1934.013672	-76.972771
12239.736170	148.405000	1933.037109	-41.231628
12239.736170	148.405000	1932.060547	111.966858
12239.736170	148.405000	1931.083984	88.917465
12239.736170	148.405000	1930.107422	156.393463
12239.736170	148.405000	1929.129883	13.473389
12239.736170	148.405000	1928.153320	22.233967
12239.736170	148.405000	1927.175781	-39.923958
12239.736170	148.405000	1926.198242	276.870361
12239.736170	148.405000	1925.219727	24.028343
12239.736170	148.405000	1924.242188	52.319546
12239.736170	148.405000	1923.263672	14.627127
12239.736170	148.405000	1922.285156	57.564915
12239.736170	148.405000	1921.306641	-2.095964
12239.736170	148.405000	1920.328125	-59.290951
12239.736170	148.405000	1919.349609	0.731020
12239.736170	148.405000	1918.370117	16.791414
12239.736170	148.405000	1917.391602	-45.249096
12239.736170	148.405000	1916.412109	0.102422
12239.736170	148.405000	1915.431641	13.721966
12239.736170	148.405000	1914.452148	-170.236420
12239.736170	148.405000	1913.472656	-27.321451
12239.736170	148.405000	1912.492188	217.953766
12239.736170	148.405000	1911.511719	131.590027
12239.736170	148.405000	1910.531250	128.137527
12239.736170	148.405000	1909.550781	-133.626938
12239.736170	148.405000	1908.569336	-5.444553
12239.736170	148.405000	1907.588867	168.984528
12239.736170	148.405000	1906.607422	90.050148
12239.736170	148.405000	1905.625977	79.337921
12239.736170	148.405000	1904.644531	139.244629
12239.736170	148.405000	1903.662109	104.199516
12239.736170	148.405000	1902.680664	-67.113998
12239.736170	148.405000	1901.698242	-24.222527
12239.736170	148.405000	1900.715820	-100.548897
12239.736170	148.405000	1899.733398	54.244526
12239.736170	148.405000	1898.750000	94.684601
12239.736170	148.405000	1897.767578	52.449715
12239.736170	148.405000	1896.784180	-65.123451
12239.736170	148.405000	1895.800781	-41.667309
12239.736170	148.405000	1894.817383	-20.638733
12239.736170	148.405000	1893.833984	61.135284
12239.736170	148.405000	1892.850586	-80.600983
12239.736170	148.405000	1891.866211	132.328735
12239.736170	148.405000	1890.881836	41.647350
12239.736170	148.405000	1889.897461	-36.849121
12239.736170	148.405000	1888.913086	42.478561
12239.736170	148.405000	1887.927734	17.426289
12239.736170	148.405000	1886.943359	53.059734
12239.736170	148.405000	1885.958008	20.759663
12239.736170	148.405000	1884.972656	-261.354675
12239.736170	148.405000	1883.987305	-41.343273
12239.736170	148.405000	1883.001953	173.747955
12239.736170	148.405000	1882.015625	32.403408
12239.736170	148.405000	1881.029297	-135.538025
12239.736170	148.405000	1880.042969	21.324043
12239.736170	148.405000	1879.056641	27.919273
12239.736170	148.405000	1878.070313	-81.752853
12239.736170	148.405000	1877.083984	-113.868149
12239.736170	148.405000	1876.096680	59.867832
12239.736170	148.405000	1875.109375	-107.820885
12239.736170	148.405000	1874.122070	-120.515434
12239.736170	148.405000	1873.134766	89.461861
12239.736170	148.405000	1872.146484	100.953796
12239.736170	148.405000	1871.159180	-49.636143
12239.736170	148.405000	1870.170898	-74.382011
12239.736170	148.405000	1869.182617	-41.066761
12239.736170	148.405000	1868.194336	1.918866
12239.736170	148.405000	1867.205078	54.567604
12239.736170	148.405000	1866.216797	49.200748
12239.736170	148.405000	1865.227539	-23.817698
12239.736170	148.405000	1864.238281	-65.388939
12239.736170	148.405000	1863.249023	173.279358
12239.736170	148.405000	1862.259766	83.403320
12239.736170	148.405000	1861.269531	-45.065289
12239.736170	148.405000	1860.279297	-144.504807
12239.736170	148.405000	1859.290039	106.108253
12239.736170	148.405000	1858.298828	98.403412
12239.736170	148.405000	1857.308594	59.345005
12239.736170	148.405000	1856.318359	42.022457
12239.736170	148.405000	1855.327148	36.774261
12239.736170	148.405000	1854.335938	55.652161
12239.736170	148.405000	1853.344727	-0.212705
12239.736170	148.405000	1852.353516	45.199463
12239.736170	148.405000	1851.362305	-34.727280
12239.736170	148.405000	1850.370117	49.244991
12239.736170	148.405000	1849.377930	-6.545428
12239.736170	148.405000	1848.385742	-28.583639
12239.736170	148.405000	1847.393555	-93.957283
12239.736170	148.405000	1846.401367	52.599018
12239.736170	148.405000	1845.408203	37.804169
12239.736170	148.405000	1844.415039	85.604797
12239.736170	148.405000	1843.421875	114.140785
12239.736170	148.405000	1842.428711	15.147705
12239.736170	148.405000	1841.435547	-26.066103
12239.736170	148.405000	1840.441406	-57.639637
12239.736170	148.405000	1839.448242	55.091507
12239.736170	148.405000	1838.454102	119.697746
12239.736170	148.405000	1837.459961	92.937660
12239.736170	148.405000	1836.464844	-25.138783
12239.736170	148.405000	1835.470703	20.235796
12239.736170	148.405000	1834.475586	22.350599
12239.736170	148.405000	1833.480469	79.715630
12239.736170	148.405000	1832.485352	177.889206
12239.736170	148.405000	1831.490234	59.926189
12239.736170	148.405000	1830.495117	-113.204941
12239.736170	148.405000	1829.499023	138.571686
12239.736170	148.405000	1828.502930	150.277252
12239.736170	148.405000	1827.506836	8.423213
12239.736170	148.405000	1826.510742	27.349583
12239.736170	148.405000	1825.513672	77.447670
12239.736170	148.405000	1824.517578	72.376350
12239.736170	148.405000	1823.520508	199.169998
12239.736170	148.405000	1822.523438	26.281933
12239.736170	148.405000	1821.526367	88.328537
12239.736170	148.405000	1820.529297	28.146418
12239.736170	148.405000	1819.531250	150.059998
12239.736170	148.405000	1818.533203	121.024529
12239.736170	148.405000	1817.535156	27.339506
12239.736170	148.405000	1816.537109	12.702379
12239.736170	148.405000	1815.539063	91.431198
12239.736170	148.405000	1814.540039	79.176064
12239.736170	148.405000	1813.541992	81.282349
12239.736170	148.405000	1812.542969	21.177011
12239.736170	148.405000	1811.543945	109.402214
12239.736170	148.405000	1810.543945	44.524067
12239.736170	148.405000	1809.544922	-137.500717
12239.736170	148.405000	1808.544922	60.666435
12239.736170	148.405000	1807.544922	43.628231
12239.736170	148.405000	1806.544922	88.728127
12239.736170	148.405000	1805.544922	-33.451176
12239.736170	148.405000	1804.544922	123.916199
12239.736170	148.405000	1803.543945	118.800133
12239.736170	148.405000	1802.542969	116.068512
12239.736170	148.405000	1801.541992	65.580406
12239.736170	148.405000	1800.541016	103.428787
12239.736170	148.405000	1799.539063	181.828156
12239.736170	148.405000	1798.538086	107.474098
12239.736170	148.405000	1797.536133	28.367691
12239.736170	148.405000	1796.534180	73.321190
12239.736170	148.405000	1795.532227	6.160477
12239.736170	148.405000	1794.529297	-46.677807
12239.736170	148.405000	1793.527344	26.847221
12239.736170	148.405000	1792.524414	40.746826
12239.736170	148.405000	1791.521484	97.526665
12239.736170	148.405000	1790.518555	-79.219795
12239.736170	148.405000	1789.514648	115.706764
12239.736170	148.405000	1788.511719	-49.087280
12239.736170	148.405000	1787.507813	-104.292374
12239.736170	148.405000	1786.503906	-38.065899
12239.736170	148.405000	1785.500000	159.044983
12239.736170	148.405000	1784.496094	53.821770
12239.736170	148.405000	1783.491211	-13.303382
12239.736170	148.405000	1782.486328	76.600090
12239.736170	148.405000	1781.481445	-73.776192
12239.736170	148.405000	1780.476563	-57.640476
12239.736170	148.405000	1779.471680	27.428846
12239.736170	148.405000	1778.465820	-1.653662
12239.736170	148.405000	1777.460938	57.203499
12239.736170	148.405000	1776.455078	35.229107
12239.736170	148.405000	1775.449219	77.397758
12239.736170	148.405000	1774.442383	126.661568
12239.736170	148.405000	1773.436523	-175.597809
12239.736170	148.405000	1772.429688	-71.719551
12239.736170	148.405000	1771.422852	65.341782
12239.736170	148.405000	1770.416016	38.558636
12239.736170	148.405000	1769.409180	-57.050186
12239.736170	148.405000	1768.402344	6.332481
12239.736170	148.405000	1767.394531	221.497559
12239.736170	148.405000	1766.386719	-35.420559
12239.736170	148.405000	1765.378906	-26.667200
12239.736170	148.405000	1764.371094	-20.303606
12239.736170	148.405000	1763.362305	76.115883
12239.736170	148.405000	1762.354492	35.024994
12239.736170	148.405000	1761.345703	-51.089531
12239.736170	148.405000	1760.336914	40.493237
12239.736170	148.405000	1759.328125	1.749177
12239.736170	148.405000	1758.318359	15.100945
12239.736170	148.405000	1757.308594	108.933098
12239.736170	148.405000	1756.299805	89.084373
12239.736170	148.405000	1755.290039	24.253733
12239.736170	148.405000	1754.279297	61.182171
12239.736170	148.405000	1753.269531	3.443385
12239.736170	148.405000	1752.258789	85.269463
12239.736170	148.405000	1751.249023	-59.994839
12239.736170	148.405000	1750.238281	151.826859
12239.736170	148.405000	1749.226563	18.384247
12239.736170	148.405000	1748.215820	50.432850
12239.736170	148.405000	1747.204102	-23.896957
12239.736170	148.405000	1746.193359	57.727573
12239.736170	148.405000	1745.181641	-75.672127
12239.736170	148.405000	1744.168945	79.105911
12239.736170	148.405000	1743.157227	-47.202145
12239.736170	148.405000	1742.144531	76.779060
12239.736170	148.405000	1741.132813	-40.077991
12239.736170	148.405000	1740.120117	-86.110901
12239.736170	148.405000	1739.106445	-28.325216
12239.736170	148.405000	1738.093750	-5.966972
12239.736170	148.405000	1737.080078	70.610008
12239.736170	148.405000	1736.067383	57.525494
12239.736170	148.405000	1735.053711	-47.532417
12239.736170	148.405000	1734.040039	61.949745
12239.736170	148.405000	1733.025391	6.382084
12239.736170	148.405000	1732.011719	-25.617907
12239.736170	148.405000	1730.997070	1.271045
12239.736170	148.405000	1729.982422	-61.383308
12239.736170	148.405000	1728.967773	-20.409649
12239.736170	148.405000	1727.952148	-104.272949
12239.736170	148.405000	1726.937500	-89.246117
12239.736170	148.405000	1725.921875	-191.937271
12239.736170	148.405000	1724.906250	-221.657913
12239.736170	148.405000	1723.890625	-30.219627
12239.736170	148.405000	1722.875000	-64.707909
12239.736170	148.405000	1721.858398	-96.855881
12239.736170	148.405000	1720.841797	-2.031606
12239.736170	148.405000	1719.825195	-69.489029
12239.736170	148.405000	1718.808594	-89.930328
12239.736170	148.405000	1717.791992	-63.382381
12239.736170	148.405000	1716.774414	273.294159
12239.736170	148.405000	1715.756836	-26.833071
12239.736170	148.405000	1714.739258	-5.079063
12239.736170	148.405000	1713.721680	56.566929
12239.736170	148.405000	1712.704102	-149.496170
12239.736170	148.405000	1711.685547	10.700514
12239.736170	148.405000	1710.667969	-35.721207
12239.736170	148.405000	1709.649414	105.575325
12239.736170	148.405000	1708.630859	124.797043
12239.736170	148.405000	1707.611328	-13.173686
12239.736170	148.405000	1706.592773	144.387192
12239.736170	148.405000	1705.573242	-164.746780
12239.736170	148.405000	1704.553711	77.130898
12239.736170	148.405000	1703.534180	-44.405987
12239.736170	148.405000	1702.513672	70.763634
12239.736170	148.405000	1701.494141	31.234154
12239.736170	148.405000	1700.473633	97.108498
12239.736170	148.405000	1699.453125	76.278877
12239.736170	148.405000	1698.432617	-35.888451
12239.736170	148.405000	1697.412109	111.835594
12239.736170	148.405000	1696.390625	65.198441
12239.736170	148.405000	1695.369141	128.549927
12239.736170	148.405000	1694.347656	4.668921
12239.736170	148.405000	1693.326172	65.624840
12239.736170	148.405000	1692.304688	170.975388
12239.736170	148.405000	1691.282227	23.704748
12239.736170	148.405000	1690.260742	40.134830
12239.736170	148.405000	1689.238281	100.947777
12239.736170	148.405000	1688.214844	14.473717
12239.736170	148.405000	1687.192383	128.969238
12239.736170	148.405000	1686.168945	12.109573
12239.736170	148.405000	1685.146484	-1.948712
12239.736170	148.405000	1684.123047	-53.391304
12239.736170	148.405000	1683.099609	14.244199
12239.736170	148.405000	1682.075195	4.793414
12239.736170	148.405000	1681.051758	91.021973
12239.736170	148.405000	1680.027344	72.184982
12239.736170	148.405000	1679.002930	-58.653522
12239.736170	148.405000	1677.978516	214.083755
12239.736170	148.405000	1676.953125	78.559998
12239.736170	148.405000	1675.928711	218.216339
12239.736170	148.405000	1674.903320	180.618256
12239.736170	148.405000	1673.877930	208.278137
12239.736170	148.405000	1672.852539	154.344116
12239.736170	148.405000	1671.826172	77.108688
12239.736170	148.405000	1670.800781	249.142563
12239.736170	148.405000	1669.774414	20.492542
12239.736170	148.405000	1668.748047	164.485550
12239.736170	148.405000	1667.721680	59.293667
12239.736170	148.405000	1666.694336	-1.653462
12239.736170	148.405000	1665.667969	14.206263
12239.736170	148.405000	1664.640625	123.109909
12239.736170	148.405000	1663.613281	199.384537
12239.736170	148.405000	1662.585938	117.451233
12239.736170	148.405000	1661.557617	77.385597
12239.736170	148.405000	1660.530273	86.146393
12239.736170	148.405000	1659.501953	241.329422
12239.736170	148.405000	1658.473633	356.925415
12239.736170	148.405000	1657.444336	242.414719
12239.736170	148.405000	1656.416016	281.266479
12239.736170	148.405000	1655.386719	294.532440
12239.736170	148.405000	1654.358398	298.491394
12239.736170	148.405000	1653.328125	369.759125
12239.736170	148.405000	1652.298828	375.987366
12239.736170	148.405000	1651.269531	289.359100
12239.736170	148.405000	1650.239258	464.962494
12239.736170	148.405000	1649.208984	422.396820
12239.736170	148.405000	1648.178711	409.987549
12239.736170	148.405000	1647.148438	318.717285
12239.736170	148.405000	1646.117188	452.377808
12239.736170	148.405000	1645.086914	507.155396
12239.736170	148.405000	1644.055664	455.274902
12239.736170	148.405000	1643.024414	465.968964
12239.736170	148.405000	1641.992188	335.309631
12239.736170	148.405000	1640.960938	387.691711
12239.736170	148.405000	1639.928711	217.699387
12239.736170	148.405000	1638.896484	267.738739
12239.736170	148.405000	1637.864258	377.938904
12239.736170	148.405000	1636.832031	381.609253
12239.736170	148.405000	1635.798828	362.119598
12239.736170	148.405000	1634.766602	418.984070
12239.736170	148.405000	1633.733398	357.832123
12239.736170	148.405000	1632.699219	453.962860
12239.736170	148.405000	1631.666016	230.935852
12239.736170	148.405000	1630.632813	218.373856
12239.736170	148.405000	1629.598633	413.839020
12239.736170	148.405000	1628.564453	350.378174
12239.736170	148.405000	1627.530273	457.917816
12239.736170	148.405000	1626.495117	516.888306
12239.736170	148.405000	1625.460938	559.662842
12239.736170	148.405000	1624.425781	489.252533
12239.736170	148.405000	1623.390625	409.625702
12239.736170	148.405000	1622.355469	417.740112
12239.736170	148.405000	1621.319336	361.216522
12239.736170	148.405000	1620.284180	459.312958
12239.736170	148.405000	1619.248047	370.489227
12239.736170	148.405000	1618.211914	505.431946
12239.736170	148.405000	1617.174805	506.554749
12239.736170	148.405000	1616.138672	556.094238
12239.736170	148.405000	1615.101563	455.763641
12239.736170	148.405000	1614.065430	408.480255
12239.736170	148.405000	1613.027344	467.200775
12239.736170	148.405000	1611.990234	470.604370
12239.736170	148.405000	1610.953125	632.938721
12239.736170	148.405000	1609.915039	585.628235
12239.736170	148.405000	1608.876953	644.249146
12239.736170	148.405000	1607.838867	550.904358
12239.736170	148.405000	1606.800781	528.943726
12239.736170	148.405000	1605.761719	504.682404
12239.736170	148.405000	1604.723633	567.860413
12239.736170	148.405000	1603.684570	474.586426
12239.736170	148.405000	1602.644531	579.129395
12239.736170	148.405000	1601.605469	423.800720
12239.736170	148.405000	1600.566406	558.200073
12239.736170	148.405000	1599.526367	573.018433
12239.736170	148.405000	1598.486328	670.560181
12239.736170	148.405000	1597.446289	676.158569
12239.736170	148.405000	1596.405273	619.726868
12239.736170	148.405000	1595.365234	632.222900
12239.736170	148.405000	1594.324219	506.934113
12239.736170	148.405000	1593.283203	505.668762
12239.736170	148.405000	1592.242188	568.675720
12239.736170	148.405000	1591.200195	581.166504
12239.736170	148.405000	1590.159180	531.707825
12239.736170	148.405000	1589.117188	603.849426
12239.736170	148.405000	1588.075195	685.139771
12239.736170	148.405000	1587.032227	644.861145
12239.736170	148.405000	1585.990234	643.581238
12239.736170	148.405000	1584.947266	623.963135
12239.736170	148.405000	1583.904297	831.242737
12239.736170	148.405000	1582.861328	639.753357
12239.736170	148.405000	1581.818359	798.849426
12239.736170	148.405000	1580.775391	790.685486
12239.736170	148.405000	1579.731445	752.756470
12239.736170	148.405000	1578.687500	804.140015
12239.736170	148.405000	1577.643555	619.732971
12239.736170	148.405000	1576.598633	684.862183
12239.736170	148.405000	1575.554688	749.977051
12239.736170	148.405000	1574.509766	666.365723
12239.736170	148.405000	1573.464844	701.733887
12239.736170	148.405000	1572.419922	798.841003
12239.736170	148.405000	1571.374023	911.919434
