#X		#Y		#Wave		#Intensity
12227.685638	148.405000	1999.980469	-83.396896
12227.685638	148.405000	1999.016602	-28.121561
12227.685638	148.405000	1998.052734	90.725708
12227.685638	148.405000	1997.087891	16.078707
12227.685638	148.405000	1996.123047	32.977707
12227.685638	148.405000	1995.158203	143.852554
12227.685638	148.405000	1994.193359	-74.869392
12227.685638	148.405000	1993.228516	15.881717
12227.685638	148.405000	1992.262695	44.564762
12227.685638	148.405000	1991.297852	45.868668
12227.685638	148.405000	1990.332031	-27.207514
12227.685638	148.405000	1989.366211	-55.846745
12227.685638	148.405000	1988.399414	-17.803560
12227.685638	148.405000	1987.433594	-34.317635
12227.685638	148.405000	1986.466797	87.547050
12227.685638	148.405000	1985.500977	-25.650948
12227.685638	148.405000	1984.534180	-79.588516
12227.685638	148.405000	1983.567383	14.684393
12227.685638	148.405000	1982.599609	-2.391013
12227.685638	148.405000	1981.632813	52.085842
12227.685638	148.405000	1980.665039	-9.664356
12227.685638	148.405000	1979.697266	89.049408
12227.685638	148.405000	1978.729492	27.118181
12227.685638	148.405000	1977.761719	-22.539684
12227.685638	148.405000	1976.792969	56.091068
12227.685638	148.405000	1975.825195	67.966347
12227.685638	148.405000	1974.856445	40.270214
12227.685638	148.405000	1973.887695	37.171513
12227.685638	148.405000	1972.918945	53.725788
12227.685638	148.405000	1971.949219	40.600727
12227.685638	148.405000	1970.980469	89.047752
12227.685638	148.405000	1970.010742	58.513557
12227.685638	148.405000	1969.041016	-100.252037
12227.685638	148.405000	1968.071289	100.769424
12227.685638	148.405000	1967.101563	217.876373
12227.685638	148.405000	1966.130859	51.577118
12227.685638	148.405000	1965.161133	37.983036
12227.685638	148.405000	1964.190430	-84.018875
12227.685638	148.405000	1963.219727	50.022301
12227.685638	148.405000	1962.249023	63.337391
12227.685638	148.405000	1961.277344	-53.849491
12227.685638	148.405000	1960.306641	-40.627270
12227.685638	148.405000	1959.334961	-5.319199
12227.685638	148.405000	1958.363281	56.984459
12227.685638	148.405000	1957.391602	47.897148
12227.685638	148.405000	1956.419922	28.932665
12227.685638	148.405000	1955.447266	-39.237652
12227.685638	148.405000	1954.474609	-11.563895
12227.685638	148.405000	1953.501953	50.464443
12227.685638	148.405000	1952.529297	122.259453
12227.685638	148.405000	1951.556641	2.377218
12227.685638	148.405000	1950.583984	125.661392
12227.685638	148.405000	1949.610352	-33.537937
12227.685638	148.405000	1948.636719	-11.024108
12227.685638	148.405000	1947.663086	43.362823
12227.685638	148.405000	1946.689453	87.882881
12227.685638	148.405000	1945.715820	58.743294
12227.685638	148.405000	1944.741211	-41.561615
12227.685638	148.405000	1943.767578	-75.623749
12227.685638	148.405000	1942.792969	138.002029
12227.685638	148.405000	1941.818359	-16.277456
12227.685638	148.405000	1940.842773	113.859291
12227.685638	148.405000	1939.868164	64.998154
12227.685638	148.405000	1938.892578	-10.822274
12227.685638	148.405000	1937.916992	-3.325330
12227.685638	148.405000	1936.941406	40.898094
12227.685638	148.405000	1935.965820	-7.982916
12227.685638	148.405000	1934.990234	68.030281
12227.685638	148.405000	1934.013672	-32.282639
12227.685638	148.405000	1933.037109	-44.445377
12227.685638	148.405000	1932.060547	-166.750641
12227.685638	148.405000	1931.083984	-78.578300
12227.685638	148.405000	1930.107422	-56.504807
12227.685638	148.405000	1929.129883	85.408745
12227.685638	148.405000	1928.153320	29.167141
12227.685638	148.405000	1927.175781	38.957775
12227.685638	148.405000	1926.198242	26.736559
12227.685638	148.405000	1925.219727	43.844383
12227.685638	148.405000	1924.242188	31.617516
12227.685638	148.405000	1923.263672	46.266891
12227.685638	148.405000	1922.285156	75.565483
12227.685638	148.405000	1921.306641	-27.041161
12227.685638	148.405000	1920.328125	7.140765
12227.685638	148.405000	1919.349609	55.958366
12227.685638	148.405000	1918.370117	-7.533536
12227.685638	148.405000	1917.391602	7.100549
12227.685638	148.405000	1916.412109	4.647551
12227.685638	148.405000	1915.431641	-17.322363
12227.685638	148.405000	1914.452148	97.318367
12227.685638	148.405000	1913.472656	80.224052
12227.685638	148.405000	1912.492188	-27.081100
12227.685638	148.405000	1911.511719	-70.956940
12227.685638	148.405000	1910.531250	-24.627104
12227.685638	148.405000	1909.550781	-48.982010
12227.685638	148.405000	1908.569336	63.121128
12227.685638	148.405000	1907.588867	121.596283
12227.685638	148.405000	1906.607422	2.253950
12227.685638	148.405000	1905.625977	19.331797
12227.685638	148.405000	1904.644531	63.192005
12227.685638	148.405000	1903.662109	-39.013908
12227.685638	148.405000	1902.680664	9.723078
12227.685638	148.405000	1901.698242	46.281319
12227.685638	148.405000	1900.715820	56.072430
12227.685638	148.405000	1899.733398	48.841072
12227.685638	148.405000	1898.750000	-101.866982
12227.685638	148.405000	1897.767578	87.905106
12227.685638	148.405000	1896.784180	7.765199
12227.685638	148.405000	1895.800781	12.736112
12227.685638	148.405000	1894.817383	110.060966
12227.685638	148.405000	1893.833984	102.881783
12227.685638	148.405000	1892.850586	30.125738
12227.685638	148.405000	1891.866211	-57.167538
12227.685638	148.405000	1890.881836	42.564690
12227.685638	148.405000	1889.897461	-59.244835
12227.685638	148.405000	1888.913086	-10.504695
12227.685638	148.405000	1887.927734	-138.943085
12227.685638	148.405000	1886.943359	67.539017
12227.685638	148.405000	1885.958008	-53.566166
12227.685638	148.405000	1884.972656	-31.503660
12227.685638	148.405000	1883.987305	-72.492661
12227.685638	148.405000	1883.001953	-50.413013
12227.685638	148.405000	1882.015625	107.426270
12227.685638	148.405000	1881.029297	1.023231
12227.685638	148.405000	1880.042969	95.808777
12227.685638	148.405000	1879.056641	-17.798637
12227.685638	148.405000	1878.070313	72.132118
12227.685638	148.405000	1877.083984	16.721371
12227.685638	148.405000	1876.096680	94.525108
12227.685638	148.405000	1875.109375	56.099094
12227.685638	148.405000	1874.122070	46.745762
12227.685638	148.405000	1873.134766	5.944778
12227.685638	148.405000	1872.146484	-80.806213
12227.685638	148.405000	1871.159180	-157.835739
12227.685638	148.405000	1870.170898	-24.390635
12227.685638	148.405000	1869.182617	-94.126678
12227.685638	148.405000	1868.194336	-67.110146
12227.685638	148.405000	1867.205078	25.176142
12227.685638	148.405000	1866.216797	18.342728
12227.685638	148.405000	1865.227539	13.937027
12227.685638	148.405000	1864.238281	-101.596977
12227.685638	148.405000	1863.249023	7.576248
12227.685638	148.405000	1862.259766	8.034676
12227.685638	148.405000	1861.269531	-37.378326
12227.685638	148.405000	1860.279297	25.877100
12227.685638	148.405000	1859.290039	26.359804
12227.685638	148.405000	1858.298828	-21.418285
12227.685638	148.405000	1857.308594	106.974129
12227.685638	148.405000	1856.318359	-39.693810
12227.685638	148.405000	1855.327148	13.897358
12227.685638	148.405000	1854.335938	57.830364
12227.685638	148.405000	1853.344727	-11.566882
12227.685638	148.405000	1852.353516	61.297688
12227.685638	148.405000	1851.362305	83.528580
12227.685638	148.405000	1850.370117	88.888878
12227.685638	148.405000	1849.377930	34.022041
12227.685638	148.405000	1848.385742	-52.131989
12227.685638	148.405000	1847.393555	-0.969454
12227.685638	148.405000	1846.401367	67.036011
12227.685638	148.405000	1845.408203	-45.540234
12227.685638	148.405000	1844.415039	39.307987
12227.685638	148.405000	1843.421875	30.273535
12227.685638	148.405000	1842.428711	-48.529594
12227.685638	148.405000	1841.435547	55.532856
12227.685638	148.405000	1840.441406	-114.634895
12227.685638	148.405000	1839.448242	66.362503
12227.685638	148.405000	1838.454102	35.715828
12227.685638	148.405000	1837.459961	-33.377140
12227.685638	148.405000	1836.464844	77.813995
12227.685638	148.405000	1835.470703	-17.686066
12227.685638	148.405000	1834.475586	-29.060785
12227.685638	148.405000	1833.480469	2.808725
12227.685638	148.405000	1832.485352	32.267391
12227.685638	148.405000	1831.490234	-12.718275
12227.685638	148.405000	1830.495117	11.934925
12227.685638	148.405000	1829.499023	12.577271
12227.685638	148.405000	1828.502930	8.421133
12227.685638	148.405000	1827.506836	100.241119
12227.685638	148.405000	1826.510742	26.504698
12227.685638	148.405000	1825.513672	-63.993507
12227.685638	148.405000	1824.517578	68.555542
12227.685638	148.405000	1823.520508	-14.723712
12227.685638	148.405000	1822.523438	-33.250996
12227.685638	148.405000	1821.526367	22.523190
12227.685638	148.405000	1820.529297	37.540684
12227.685638	148.405000	1819.531250	-4.946868
12227.685638	148.405000	1818.533203	12.461600
12227.685638	148.405000	1817.535156	32.256268
12227.685638	148.405000	1816.537109	-19.789248
12227.685638	148.405000	1815.539063	203.481491
12227.685638	148.405000	1814.540039	14.990051
12227.685638	148.405000	1813.541992	125.692932
12227.685638	148.405000	1812.542969	-5.297885
12227.685638	148.405000	1811.543945	19.243380
12227.685638	148.405000	1810.543945	215.968994
12227.685638	148.405000	1809.544922	116.108917
12227.685638	148.405000	1808.544922	49.751190
12227.685638	148.405000	1807.544922	24.048611
12227.685638	148.405000	1806.544922	10.299708
12227.685638	148.405000	1805.544922	-91.856895
12227.685638	148.405000	1804.544922	-0.476666
12227.685638	148.405000	1803.543945	43.092136
12227.685638	148.405000	1802.542969	67.533592
12227.685638	148.405000	1801.541992	34.657238
12227.685638	148.405000	1800.541016	-69.827507
12227.685638	148.405000	1799.539063	21.426641
12227.685638	148.405000	1798.538086	-4.285515
12227.685638	148.405000	1797.536133	-22.839437
12227.685638	148.405000	1796.534180	20.624052
12227.685638	148.405000	1795.532227	16.364927
12227.685638	148.405000	1794.529297	24.019753
12227.685638	148.405000	1793.527344	-1.711560
12227.685638	148.405000	1792.524414	36.911182
12227.685638	148.405000	1791.521484	1.634907
12227.685638	148.405000	1790.518555	-9.811899
12227.685638	148.405000	1789.514648	-49.851543
12227.685638	148.405000	1788.511719	60.162762
12227.685638	148.405000	1787.507813	29.629097
12227.685638	148.405000	1786.503906	22.904057
12227.685638	148.405000	1785.500000	87.581383
12227.685638	148.405000	1784.496094	-16.750809
12227.685638	148.405000	1783.491211	43.126007
12227.685638	148.405000	1782.486328	53.009151
12227.685638	148.405000	1781.481445	-127.408020
12227.685638	148.405000	1780.476563	25.165264
12227.685638	148.405000	1779.471680	-5.411367
12227.685638	148.405000	1778.465820	-0.332285
12227.685638	148.405000	1777.460938	-42.802483
12227.685638	148.405000	1776.455078	-68.636986
12227.685638	148.405000	1775.449219	24.317101
12227.685638	148.405000	1774.442383	-101.315788
12227.685638	148.405000	1773.436523	50.954544
12227.685638	148.405000	1772.429688	58.307362
12227.685638	148.405000	1771.422852	-7.952521
12227.685638	148.405000	1770.416016	-40.971798
12227.685638	148.405000	1769.409180	-36.023140
12227.685638	148.405000	1768.402344	108.896919
12227.685638	148.405000	1767.394531	101.922020
12227.685638	148.405000	1766.386719	-21.284050
12227.685638	148.405000	1765.378906	66.590286
12227.685638	148.405000	1764.371094	54.837799
12227.685638	148.405000	1763.362305	33.590393
12227.685638	148.405000	1762.354492	33.665745
12227.685638	148.405000	1761.345703	83.483337
12227.685638	148.405000	1760.336914	57.454613
12227.685638	148.405000	1759.328125	2.994939
12227.685638	148.405000	1758.318359	12.478091
12227.685638	148.405000	1757.308594	10.101709
12227.685638	148.405000	1756.299805	-18.329805
12227.685638	148.405000	1755.290039	99.973709
12227.685638	148.405000	1754.279297	180.350677
12227.685638	148.405000	1753.269531	-35.060341
12227.685638	148.405000	1752.258789	68.930145
12227.685638	148.405000	1751.249023	-21.067801
12227.685638	148.405000	1750.238281	89.937508
12227.685638	148.405000	1749.226563	134.684647
12227.685638	148.405000	1748.215820	61.213997
12227.685638	148.405000	1747.204102	70.463417
12227.685638	148.405000	1746.193359	-106.967575
12227.685638	148.405000	1745.181641	119.606407
12227.685638	148.405000	1744.168945	31.943247
12227.685638	148.405000	1743.157227	71.812752
12227.685638	148.405000	1742.144531	31.372856
12227.685638	148.405000	1741.132813	-20.871939
12227.685638	148.405000	1740.120117	80.286293
12227.685638	148.405000	1739.106445	-54.578377
12227.685638	148.405000	1738.093750	-12.471334
12227.685638	148.405000	1737.080078	31.956362
12227.685638	148.405000	1736.067383	26.825380
12227.685638	148.405000	1735.053711	196.152802
12227.685638	148.405000	1734.040039	-80.148132
12227.685638	148.405000	1733.025391	-80.605858
12227.685638	148.405000	1732.011719	17.889977
12227.685638	148.405000	1730.997070	-34.459599
12227.685638	148.405000	1729.982422	94.569275
12227.685638	148.405000	1728.967773	30.408201
12227.685638	148.405000	1727.952148	-29.041870
12227.685638	148.405000	1726.937500	-8.444070
12227.685638	148.405000	1725.921875	-72.612907
12227.685638	148.405000	1724.906250	-14.405470
12227.685638	148.405000	1723.890625	88.463387
12227.685638	148.405000	1722.875000	-8.683616
12227.685638	148.405000	1721.858398	23.541952
12227.685638	148.405000	1720.841797	-14.811630
12227.685638	148.405000	1719.825195	-8.500957
12227.685638	148.405000	1718.808594	58.902435
12227.685638	148.405000	1717.791992	20.500841
12227.685638	148.405000	1716.774414	-93.099861
12227.685638	148.405000	1715.756836	-159.692825
12227.685638	148.405000	1714.739258	27.391396
12227.685638	148.405000	1713.721680	24.165031
12227.685638	148.405000	1712.704102	-16.648020
12227.685638	148.405000	1711.685547	-66.858704
12227.685638	148.405000	1710.667969	108.245270
12227.685638	148.405000	1709.649414	-12.409200
12227.685638	148.405000	1708.630859	113.304329
12227.685638	148.405000	1707.611328	-54.262302
12227.685638	148.405000	1706.592773	15.084072
12227.685638	148.405000	1705.573242	58.587845
12227.685638	148.405000	1704.553711	83.300117
12227.685638	148.405000	1703.534180	-30.306894
12227.685638	148.405000	1702.513672	13.115896
12227.685638	148.405000	1701.494141	49.475006
12227.685638	148.405000	1700.473633	-40.698971
12227.685638	148.405000	1699.453125	93.979897
12227.685638	148.405000	1698.432617	48.281704
12227.685638	148.405000	1697.412109	-18.490234
12227.685638	148.405000	1696.390625	104.339722
12227.685638	148.405000	1695.369141	170.934937
12227.685638	148.405000	1694.347656	26.900501
12227.685638	148.405000	1693.326172	109.820969
12227.685638	148.405000	1692.304688	64.048500
12227.685638	148.405000	1691.282227	165.594620
12227.685638	148.405000	1690.260742	-27.506289
12227.685638	148.405000	1689.238281	-52.249844
12227.685638	148.405000	1688.214844	109.963623
12227.685638	148.405000	1687.192383	57.123714
12227.685638	148.405000	1686.168945	188.844070
12227.685638	148.405000	1685.146484	-27.534081
12227.685638	148.405000	1684.123047	55.071606
12227.685638	148.405000	1683.099609	55.905312
12227.685638	148.405000	1682.075195	7.694251
12227.685638	148.405000	1681.051758	-40.514622
12227.685638	148.405000	1680.027344	32.617744
12227.685638	148.405000	1679.002930	19.379066
12227.685638	148.405000	1677.978516	-63.852077
12227.685638	148.405000	1676.953125	88.478615
12227.685638	148.405000	1675.928711	96.167786
12227.685638	148.405000	1674.903320	143.464981
12227.685638	148.405000	1673.877930	116.139473
12227.685638	148.405000	1672.852539	142.405777
12227.685638	148.405000	1671.826172	154.661423
12227.685638	148.405000	1670.800781	185.534744
12227.685638	148.405000	1669.774414	155.820572
12227.685638	148.405000	1668.748047	58.571461
12227.685638	148.405000	1667.721680	66.109871
12227.685638	148.405000	1666.694336	141.128662
12227.685638	148.405000	1665.667969	125.342781
12227.685638	148.405000	1664.640625	16.471724
12227.685638	148.405000	1663.613281	-1.645731
12227.685638	148.405000	1662.585938	80.241112
12227.685638	148.405000	1661.557617	55.107285
12227.685638	148.405000	1660.530273	85.770905
12227.685638	148.405000	1659.501953	88.509460
12227.685638	148.405000	1658.473633	140.037796
12227.685638	148.405000	1657.444336	119.495461
12227.685638	148.405000	1656.416016	161.675781
12227.685638	148.405000	1655.386719	217.758484
12227.685638	148.405000	1654.358398	192.528183
12227.685638	148.405000	1653.328125	120.849754
12227.685638	148.405000	1652.298828	313.828522
12227.685638	148.405000	1651.269531	269.981903
12227.685638	148.405000	1650.239258	209.892258
12227.685638	148.405000	1649.208984	282.055817
12227.685638	148.405000	1648.178711	191.806335
12227.685638	148.405000	1647.148438	266.238770
12227.685638	148.405000	1646.117188	317.439819
12227.685638	148.405000	1645.086914	229.516586
12227.685638	148.405000	1644.055664	289.952301
12227.685638	148.405000	1643.024414	218.262802
12227.685638	148.405000	1641.992188	223.044540
12227.685638	148.405000	1640.960938	195.386124
12227.685638	148.405000	1639.928711	276.576874
12227.685638	148.405000	1638.896484	191.004761
12227.685638	148.405000	1637.864258	253.622665
12227.685638	148.405000	1636.832031	304.632996
12227.685638	148.405000	1635.798828	226.013550
12227.685638	148.405000	1634.766602	253.852036
12227.685638	148.405000	1633.733398	316.366913
12227.685638	148.405000	1632.699219	295.581360
12227.685638	148.405000	1631.666016	290.985077
12227.685638	148.405000	1630.632813	281.758423
12227.685638	148.405000	1629.598633	346.492401
12227.685638	148.405000	1628.564453	397.326569
12227.685638	148.405000	1627.530273	374.192810
12227.685638	148.405000	1626.495117	251.719727
12227.685638	148.405000	1625.460938	307.139740
12227.685638	148.405000	1624.425781	353.290344
12227.685638	148.405000	1623.390625	362.475616
12227.685638	148.405000	1622.355469	330.099670
12227.685638	148.405000	1621.319336	235.412170
12227.685638	148.405000	1620.284180	371.508392
12227.685638	148.405000	1619.248047	246.846878
12227.685638	148.405000	1618.211914	299.836212
12227.685638	148.405000	1617.174805	329.734894
12227.685638	148.405000	1616.138672	325.035675
12227.685638	148.405000	1615.101563	352.603790
12227.685638	148.405000	1614.065430	306.407104
12227.685638	148.405000	1613.027344	308.609100
12227.685638	148.405000	1611.990234	280.859375
12227.685638	148.405000	1610.953125	379.807068
12227.685638	148.405000	1609.915039	481.012360
12227.685638	148.405000	1608.876953	437.115845
12227.685638	148.405000	1607.838867	326.472809
12227.685638	148.405000	1606.800781	305.635315
12227.685638	148.405000	1605.761719	328.523438
12227.685638	148.405000	1604.723633	450.337494
12227.685638	148.405000	1603.684570	401.877289
12227.685638	148.405000	1602.644531	355.731049
12227.685638	148.405000	1601.605469	465.965759
12227.685638	148.405000	1600.566406	376.147980
12227.685638	148.405000	1599.526367	523.108459
12227.685638	148.405000	1598.486328	474.676788
12227.685638	148.405000	1597.446289	612.371338
12227.685638	148.405000	1596.405273	444.487122
12227.685638	148.405000	1595.365234	469.597534
12227.685638	148.405000	1594.324219	501.584961
12227.685638	148.405000	1593.283203	717.227661
12227.685638	148.405000	1592.242188	476.009857
12227.685638	148.405000	1591.200195	517.160706
12227.685638	148.405000	1590.159180	578.952332
12227.685638	148.405000	1589.117188	601.721130
12227.685638	148.405000	1588.075195	681.824036
12227.685638	148.405000	1587.032227	622.015625
12227.685638	148.405000	1585.990234	658.530334
12227.685638	148.405000	1584.947266	585.005005
12227.685638	148.405000	1583.904297	596.309631
12227.685638	148.405000	1582.861328	431.181915
12227.685638	148.405000	1581.818359	637.248047
12227.685638	148.405000	1580.775391	440.122192
12227.685638	148.405000	1579.731445	655.274292
12227.685638	148.405000	1578.687500	554.392212
12227.685638	148.405000	1577.643555	529.096436
12227.685638	148.405000	1576.598633	496.948700
12227.685638	148.405000	1575.554688	595.250671
12227.685638	148.405000	1574.509766	583.707275
12227.685638	148.405000	1573.464844	508.132233
12227.685638	148.405000	1572.419922	624.689941
12227.685638	148.405000	1571.374023	489.703491
12227.685638	148.405000	1570.329102	462.222504
