#X		#Y		#Wave		#Intensity
12150.562234	-218.845000	1999.980469	14.444215
12150.562234	-218.845000	1999.016602	-14.370288
12150.562234	-218.845000	1998.052734	21.749737
12150.562234	-218.845000	1997.087891	-6.722319
12150.562234	-218.845000	1996.123047	-136.915283
12150.562234	-218.845000	1995.158203	-9.573848
12150.562234	-218.845000	1994.193359	65.570892
12150.562234	-218.845000	1993.228516	-50.121441
12150.562234	-218.845000	1992.262695	-123.808449
12150.562234	-218.845000	1991.297852	89.545113
12150.562234	-218.845000	1990.332031	94.806183
12150.562234	-218.845000	1989.366211	137.063141
12150.562234	-218.845000	1988.399414	-53.363922
12150.562234	-218.845000	1987.433594	-75.633423
12150.562234	-218.845000	1986.466797	52.855667
12150.562234	-218.845000	1985.500977	45.198132
12150.562234	-218.845000	1984.534180	-29.306368
12150.562234	-218.845000	1983.567383	39.478634
12150.562234	-218.845000	1982.599609	98.258881
12150.562234	-218.845000	1981.632813	109.980263
12150.562234	-218.845000	1980.665039	59.850555
12150.562234	-218.845000	1979.697266	140.557098
12150.562234	-218.845000	1978.729492	21.129288
12150.562234	-218.845000	1977.761719	-2.044202
12150.562234	-218.845000	1976.792969	-91.935303
12150.562234	-218.845000	1975.825195	-9.106313
12150.562234	-218.845000	1974.856445	-44.821568
12150.562234	-218.845000	1973.887695	82.236267
12150.562234	-218.845000	1972.918945	317.714325
12150.562234	-218.845000	1971.949219	123.922249
12150.562234	-218.845000	1970.980469	191.510010
12150.562234	-218.845000	1970.010742	83.977921
12150.562234	-218.845000	1969.041016	62.698017
12150.562234	-218.845000	1968.071289	196.626709
12150.562234	-218.845000	1967.101563	-44.060909
12150.562234	-218.845000	1966.130859	153.784912
12150.562234	-218.845000	1965.161133	16.542980
12150.562234	-218.845000	1964.190430	-96.069618
12150.562234	-218.845000	1963.219727	99.075974
12150.562234	-218.845000	1962.249023	79.946556
12150.562234	-218.845000	1961.277344	23.865217
12150.562234	-218.845000	1960.306641	-42.075211
12150.562234	-218.845000	1959.334961	-21.920048
12150.562234	-218.845000	1958.363281	268.770050
12150.562234	-218.845000	1957.391602	-53.054977
12150.562234	-218.845000	1956.419922	217.796936
12150.562234	-218.845000	1955.447266	-32.668034
12150.562234	-218.845000	1954.474609	61.047989
12150.562234	-218.845000	1953.501953	-164.775177
12150.562234	-218.845000	1952.529297	-58.837269
12150.562234	-218.845000	1951.556641	-127.381989
12150.562234	-218.845000	1950.583984	236.355682
12150.562234	-218.845000	1949.610352	-16.438828
12150.562234	-218.845000	1948.636719	-55.554867
12150.562234	-218.845000	1947.663086	-72.583992
12150.562234	-218.845000	1946.689453	6.094122
12150.562234	-218.845000	1945.715820	20.925911
12150.562234	-218.845000	1944.741211	79.896317
12150.562234	-218.845000	1943.767578	55.431252
12150.562234	-218.845000	1942.792969	33.412491
12150.562234	-218.845000	1941.818359	-37.650650
12150.562234	-218.845000	1940.842773	6.523426
12150.562234	-218.845000	1939.868164	129.106674
12150.562234	-218.845000	1938.892578	9.018719
12150.562234	-218.845000	1937.916992	-91.433395
12150.562234	-218.845000	1936.941406	18.822399
12150.562234	-218.845000	1935.965820	-13.030530
12150.562234	-218.845000	1934.990234	8.996803
12150.562234	-218.845000	1934.013672	48.146626
12150.562234	-218.845000	1933.037109	-40.016323
12150.562234	-218.845000	1932.060547	55.408947
12150.562234	-218.845000	1931.083984	57.806805
12150.562234	-218.845000	1930.107422	-0.963816
12150.562234	-218.845000	1929.129883	-157.560287
12150.562234	-218.845000	1928.153320	-1.058946
12150.562234	-218.845000	1927.175781	-35.344452
12150.562234	-218.845000	1926.198242	-18.279987
12150.562234	-218.845000	1925.219727	-123.438087
12150.562234	-218.845000	1924.242188	133.127243
12150.562234	-218.845000	1923.263672	84.173828
12150.562234	-218.845000	1922.285156	135.397934
12150.562234	-218.845000	1921.306641	103.558609
12150.562234	-218.845000	1920.328125	64.405144
12150.562234	-218.845000	1919.349609	-23.565170
12150.562234	-218.845000	1918.370117	-77.328384
12150.562234	-218.845000	1917.391602	93.466599
12150.562234	-218.845000	1916.412109	-143.310287
12150.562234	-218.845000	1915.431641	103.064713
12150.562234	-218.845000	1914.452148	56.636951
12150.562234	-218.845000	1913.472656	78.514252
12150.562234	-218.845000	1912.492188	36.986061
12150.562234	-218.845000	1911.511719	-87.414711
12150.562234	-218.845000	1910.531250	53.912529
12150.562234	-218.845000	1909.550781	-158.173828
12150.562234	-218.845000	1908.569336	238.949585
12150.562234	-218.845000	1907.588867	78.066208
12150.562234	-218.845000	1906.607422	39.023331
12150.562234	-218.845000	1905.625977	17.042212
12150.562234	-218.845000	1904.644531	-102.319641
12150.562234	-218.845000	1903.662109	-48.805176
12150.562234	-218.845000	1902.680664	-99.963066
12150.562234	-218.845000	1901.698242	2.198420
12150.562234	-218.845000	1900.715820	-53.817329
12150.562234	-218.845000	1899.733398	182.080322
12150.562234	-218.845000	1898.750000	67.683479
12150.562234	-218.845000	1897.767578	11.685585
12150.562234	-218.845000	1896.784180	62.673996
12150.562234	-218.845000	1895.800781	-92.960289
12150.562234	-218.845000	1894.817383	159.727783
12150.562234	-218.845000	1893.833984	1.700816
12150.562234	-218.845000	1892.850586	59.933121
12150.562234	-218.845000	1891.866211	28.275312
12150.562234	-218.845000	1890.881836	-27.657057
12150.562234	-218.845000	1889.897461	110.659111
12150.562234	-218.845000	1888.913086	95.991058
12150.562234	-218.845000	1887.927734	40.066280
12150.562234	-218.845000	1886.943359	27.835911
12150.562234	-218.845000	1885.958008	-83.863846
12150.562234	-218.845000	1884.972656	170.740707
12150.562234	-218.845000	1883.987305	173.028076
12150.562234	-218.845000	1883.001953	-23.517757
12150.562234	-218.845000	1882.015625	-52.723106
12150.562234	-218.845000	1881.029297	12.603683
12150.562234	-218.845000	1880.042969	-28.728252
12150.562234	-218.845000	1879.056641	-11.903930
12150.562234	-218.845000	1878.070313	128.451202
12150.562234	-218.845000	1877.083984	50.767345
12150.562234	-218.845000	1876.096680	-19.633446
12150.562234	-218.845000	1875.109375	45.562534
12150.562234	-218.845000	1874.122070	-15.147141
12150.562234	-218.845000	1873.134766	122.608131
12150.562234	-218.845000	1872.146484	20.748972
12150.562234	-218.845000	1871.159180	61.653351
12150.562234	-218.845000	1870.170898	78.341690
12150.562234	-218.845000	1869.182617	22.460728
12150.562234	-218.845000	1868.194336	208.377136
12150.562234	-218.845000	1867.205078	-45.765892
12150.562234	-218.845000	1866.216797	-147.556122
12150.562234	-218.845000	1865.227539	33.412483
12150.562234	-218.845000	1864.238281	-5.566830
12150.562234	-218.845000	1863.249023	-85.612755
12150.562234	-218.845000	1862.259766	-56.962158
12150.562234	-218.845000	1861.269531	-127.344025
12150.562234	-218.845000	1860.279297	-163.916214
12150.562234	-218.845000	1859.290039	-33.939087
12150.562234	-218.845000	1858.298828	168.370117
12150.562234	-218.845000	1857.308594	40.016632
12150.562234	-218.845000	1856.318359	37.139572
12150.562234	-218.845000	1855.327148	200.669983
12150.562234	-218.845000	1854.335938	132.610260
12150.562234	-218.845000	1853.344727	38.032104
12150.562234	-218.845000	1852.353516	121.854889
12150.562234	-218.845000	1851.362305	-25.753965
12150.562234	-218.845000	1850.370117	207.406982
12150.562234	-218.845000	1849.377930	153.751358
12150.562234	-218.845000	1848.385742	18.191669
12150.562234	-218.845000	1847.393555	56.061371
12150.562234	-218.845000	1846.401367	166.129425
12150.562234	-218.845000	1845.408203	112.420433
12150.562234	-218.845000	1844.415039	-27.947798
12150.562234	-218.845000	1843.421875	41.081806
12150.562234	-218.845000	1842.428711	54.717690
12150.562234	-218.845000	1841.435547	15.394844
12150.562234	-218.845000	1840.441406	43.402378
12150.562234	-218.845000	1839.448242	20.871374
12150.562234	-218.845000	1838.454102	-18.512028
12150.562234	-218.845000	1837.459961	156.032303
12150.562234	-218.845000	1836.464844	27.649818
12150.562234	-218.845000	1835.470703	45.865383
12150.562234	-218.845000	1834.475586	217.799500
12150.562234	-218.845000	1833.480469	173.453110
12150.562234	-218.845000	1832.485352	179.522980
12150.562234	-218.845000	1831.490234	41.489056
12150.562234	-218.845000	1830.495117	-2.900156
12150.562234	-218.845000	1829.499023	-47.309956
12150.562234	-218.845000	1828.502930	13.852592
12150.562234	-218.845000	1827.506836	82.154366
12150.562234	-218.845000	1826.510742	47.242332
12150.562234	-218.845000	1825.513672	81.859268
12150.562234	-218.845000	1824.517578	42.089401
12150.562234	-218.845000	1823.520508	59.835747
12150.562234	-218.845000	1822.523438	55.963928
12150.562234	-218.845000	1821.526367	13.707848
12150.562234	-218.845000	1820.529297	-86.079445
12150.562234	-218.845000	1819.531250	106.407135
12150.562234	-218.845000	1818.533203	11.347843
12150.562234	-218.845000	1817.535156	47.998074
12150.562234	-218.845000	1816.537109	142.058563
12150.562234	-218.845000	1815.539063	145.072815
12150.562234	-218.845000	1814.540039	4.434606
12150.562234	-218.845000	1813.541992	-112.261169
12150.562234	-218.845000	1812.542969	127.531273
12150.562234	-218.845000	1811.543945	94.490540
12150.562234	-218.845000	1810.543945	-29.467262
12150.562234	-218.845000	1809.544922	-143.855301
12150.562234	-218.845000	1808.544922	42.986183
12150.562234	-218.845000	1807.544922	-54.732784
12150.562234	-218.845000	1806.544922	-80.765503
12150.562234	-218.845000	1805.544922	155.997025
12150.562234	-218.845000	1804.544922	168.065155
12150.562234	-218.845000	1803.543945	141.861603
12150.562234	-218.845000	1802.542969	5.772427
12150.562234	-218.845000	1801.541992	46.366623
12150.562234	-218.845000	1800.541016	-22.909863
12150.562234	-218.845000	1799.539063	-68.344460
12150.562234	-218.845000	1798.538086	57.999939
12150.562234	-218.845000	1797.536133	91.199165
12150.562234	-218.845000	1796.534180	48.005817
12150.562234	-218.845000	1795.532227	238.495773
12150.562234	-218.845000	1794.529297	18.740778
12150.562234	-218.845000	1793.527344	180.455780
12150.562234	-218.845000	1792.524414	82.252327
12150.562234	-218.845000	1791.521484	-4.049335
12150.562234	-218.845000	1790.518555	12.081786
12150.562234	-218.845000	1789.514648	90.088333
12150.562234	-218.845000	1788.511719	72.748276
12150.562234	-218.845000	1787.507813	36.308449
12150.562234	-218.845000	1786.503906	14.114783
12150.562234	-218.845000	1785.500000	65.668030
12150.562234	-218.845000	1784.496094	-130.363068
12150.562234	-218.845000	1783.491211	147.136719
12150.562234	-218.845000	1782.486328	74.762581
12150.562234	-218.845000	1781.481445	-71.373367
12150.562234	-218.845000	1780.476563	60.730652
12150.562234	-218.845000	1779.471680	-166.295670
12150.562234	-218.845000	1778.465820	96.409798
12150.562234	-218.845000	1777.460938	187.838120
12150.562234	-218.845000	1776.455078	141.347397
12150.562234	-218.845000	1775.449219	-52.482357
12150.562234	-218.845000	1774.442383	-34.888840
12150.562234	-218.845000	1773.436523	163.142914
12150.562234	-218.845000	1772.429688	123.590752
12150.562234	-218.845000	1771.422852	-143.911377
12150.562234	-218.845000	1770.416016	-62.448544
12150.562234	-218.845000	1769.409180	149.448898
12150.562234	-218.845000	1768.402344	211.731049
12150.562234	-218.845000	1767.394531	24.843544
12150.562234	-218.845000	1766.386719	-81.388977
12150.562234	-218.845000	1765.378906	-16.901125
12150.562234	-218.845000	1764.371094	113.891029
12150.562234	-218.845000	1763.362305	145.013977
12150.562234	-218.845000	1762.354492	211.621628
12150.562234	-218.845000	1761.345703	190.471054
12150.562234	-218.845000	1760.336914	-48.684978
12150.562234	-218.845000	1759.328125	93.543175
12150.562234	-218.845000	1758.318359	219.078278
12150.562234	-218.845000	1757.308594	76.955482
12150.562234	-218.845000	1756.299805	114.747307
12150.562234	-218.845000	1755.290039	-60.551476
12150.562234	-218.845000	1754.279297	-105.694878
12150.562234	-218.845000	1753.269531	-82.261375
12150.562234	-218.845000	1752.258789	85.395866
12150.562234	-218.845000	1751.249023	-16.675428
12150.562234	-218.845000	1750.238281	75.124527
12150.562234	-218.845000	1749.226563	-15.210202
12150.562234	-218.845000	1748.215820	-70.106163
12150.562234	-218.845000	1747.204102	-21.062502
12150.562234	-218.845000	1746.193359	172.042313
12150.562234	-218.845000	1745.181641	36.646454
12150.562234	-218.845000	1744.168945	-127.101669
12150.562234	-218.845000	1743.157227	101.158089
12150.562234	-218.845000	1742.144531	-57.930336
12150.562234	-218.845000	1741.132813	63.893818
12150.562234	-218.845000	1740.120117	-128.281357
12150.562234	-218.845000	1739.106445	31.139843
12150.562234	-218.845000	1738.093750	-116.242607
12150.562234	-218.845000	1737.080078	92.537018
12150.562234	-218.845000	1736.067383	86.584763
12150.562234	-218.845000	1735.053711	-65.611366
12150.562234	-218.845000	1734.040039	93.367996
12150.562234	-218.845000	1733.025391	33.031460
12150.562234	-218.845000	1732.011719	-86.241081
12150.562234	-218.845000	1730.997070	55.988216
12150.562234	-218.845000	1729.982422	-2.114948
12150.562234	-218.845000	1728.967773	123.450653
12150.562234	-218.845000	1727.952148	-52.491165
12150.562234	-218.845000	1726.937500	-162.494522
12150.562234	-218.845000	1725.921875	118.209991
12150.562234	-218.845000	1724.906250	48.108677
12150.562234	-218.845000	1723.890625	-123.191734
12150.562234	-218.845000	1722.875000	-99.228050
12150.562234	-218.845000	1721.858398	101.064522
12150.562234	-218.845000	1720.841797	-185.536484
12150.562234	-218.845000	1719.825195	80.421402
12150.562234	-218.845000	1718.808594	-455.334930
12150.562234	-218.845000	1717.791992	-128.425262
12150.562234	-218.845000	1716.774414	-60.167805
12150.562234	-218.845000	1715.756836	24.457436
12150.562234	-218.845000	1714.739258	-121.184929
12150.562234	-218.845000	1713.721680	90.131058
12150.562234	-218.845000	1712.704102	-100.178215
12150.562234	-218.845000	1711.685547	-27.554195
12150.562234	-218.845000	1710.667969	-25.409761
12150.562234	-218.845000	1709.649414	9.529014
12150.562234	-218.845000	1708.630859	-49.439194
12150.562234	-218.845000	1707.611328	114.399292
12150.562234	-218.845000	1706.592773	-68.957863
12150.562234	-218.845000	1705.573242	80.658447
12150.562234	-218.845000	1704.553711	-126.166771
12150.562234	-218.845000	1703.534180	32.685089
12150.562234	-218.845000	1702.513672	29.726366
12150.562234	-218.845000	1701.494141	176.680740
12150.562234	-218.845000	1700.473633	-9.112142
12150.562234	-218.845000	1699.453125	-23.906883
12150.562234	-218.845000	1698.432617	57.266712
12150.562234	-218.845000	1697.412109	42.375916
12150.562234	-218.845000	1696.390625	100.003189
12150.562234	-218.845000	1695.369141	52.252506
12150.562234	-218.845000	1694.347656	32.556007
12150.562234	-218.845000	1693.326172	-118.180534
12150.562234	-218.845000	1692.304688	-133.242752
12150.562234	-218.845000	1691.282227	8.330568
12150.562234	-218.845000	1690.260742	124.097023
12150.562234	-218.845000	1689.238281	34.065414
12150.562234	-218.845000	1688.214844	102.945160
12150.562234	-218.845000	1687.192383	17.546017
12150.562234	-218.845000	1686.168945	79.316071
12150.562234	-218.845000	1685.146484	-17.800991
12150.562234	-218.845000	1684.123047	193.337128
12150.562234	-218.845000	1683.099609	21.437454
12150.562234	-218.845000	1682.075195	115.683594
12150.562234	-218.845000	1681.051758	-53.874023
12150.562234	-218.845000	1680.027344	89.283615
12150.562234	-218.845000	1679.002930	10.707413
12150.562234	-218.845000	1677.978516	202.713394
12150.562234	-218.845000	1676.953125	177.710632
12150.562234	-218.845000	1675.928711	59.422729
12150.562234	-218.845000	1674.903320	-42.541725
12150.562234	-218.845000	1673.877930	23.321478
12150.562234	-218.845000	1672.852539	207.977783
12150.562234	-218.845000	1671.826172	73.321526
12150.562234	-218.845000	1670.800781	201.928131
12150.562234	-218.845000	1669.774414	106.859108
12150.562234	-218.845000	1668.748047	-18.473978
12150.562234	-218.845000	1667.721680	182.152161
12150.562234	-218.845000	1666.694336	226.709885
12150.562234	-218.845000	1665.667969	15.234848
12150.562234	-218.845000	1664.640625	185.399658
12150.562234	-218.845000	1663.613281	346.166809
12150.562234	-218.845000	1662.585938	311.472504
12150.562234	-218.845000	1661.557617	83.746048
12150.562234	-218.845000	1660.530273	95.566284
12150.562234	-218.845000	1659.501953	300.287292
12150.562234	-218.845000	1658.473633	232.986893
12150.562234	-218.845000	1657.444336	35.557266
12150.562234	-218.845000	1656.416016	279.598877
12150.562234	-218.845000	1655.386719	507.257690
12150.562234	-218.845000	1654.358398	319.124451
12150.562234	-218.845000	1653.328125	407.327332
12150.562234	-218.845000	1652.298828	548.878174
12150.562234	-218.845000	1651.269531	344.534393
12150.562234	-218.845000	1650.239258	660.035706
12150.562234	-218.845000	1649.208984	567.068481
12150.562234	-218.845000	1648.178711	678.245789
12150.562234	-218.845000	1647.148438	511.066284
12150.562234	-218.845000	1646.117188	585.073425
12150.562234	-218.845000	1645.086914	772.640442
12150.562234	-218.845000	1644.055664	515.093750
12150.562234	-218.845000	1643.024414	584.381531
12150.562234	-218.845000	1641.992188	885.311829
12150.562234	-218.845000	1640.960938	873.401489
12150.562234	-218.845000	1639.928711	977.275696
12150.562234	-218.845000	1638.896484	875.015503
12150.562234	-218.845000	1637.864258	657.028809
12150.562234	-218.845000	1636.832031	659.011719
12150.562234	-218.845000	1635.798828	876.198975
12150.562234	-218.845000	1634.766602	929.026428
12150.562234	-218.845000	1633.733398	986.444397
12150.562234	-218.845000	1632.699219	812.537659
12150.562234	-218.845000	1631.666016	1017.940247
12150.562234	-218.845000	1630.632813	1063.732666
12150.562234	-218.845000	1629.598633	1195.019897
12150.562234	-218.845000	1628.564453	917.193542
12150.562234	-218.845000	1627.530273	986.066833
12150.562234	-218.845000	1626.495117	980.977112
12150.562234	-218.845000	1625.460938	1098.313354
12150.562234	-218.845000	1624.425781	1160.172485
12150.562234	-218.845000	1623.390625	1134.272217
12150.562234	-218.845000	1622.355469	1025.281250
12150.562234	-218.845000	1621.319336	1250.976440
12150.562234	-218.845000	1620.284180	1206.619873
12150.562234	-218.845000	1619.248047	920.036804
12150.562234	-218.845000	1618.211914	1297.865967
12150.562234	-218.845000	1617.174805	1149.744629
12150.562234	-218.845000	1616.138672	1100.840942
12150.562234	-218.845000	1615.101563	1349.329956
12150.562234	-218.845000	1614.065430	1208.227539
12150.562234	-218.845000	1613.027344	1120.170532
12150.562234	-218.845000	1611.990234	1260.250977
12150.562234	-218.845000	1610.953125	1250.562378
12150.562234	-218.845000	1609.915039	1058.942993
12150.562234	-218.845000	1608.876953	1157.528564
12150.562234	-218.845000	1607.838867	1076.525024
12150.562234	-218.845000	1606.800781	1101.440674
12150.562234	-218.845000	1605.761719	1112.542847
12150.562234	-218.845000	1604.723633	1171.980103
12150.562234	-218.845000	1603.684570	1291.207764
12150.562234	-218.845000	1602.644531	1355.198486
12150.562234	-218.845000	1601.605469	1285.824097
12150.562234	-218.845000	1600.566406	1388.915527
12150.562234	-218.845000	1599.526367	1305.795410
12150.562234	-218.845000	1598.486328	1424.955078
12150.562234	-218.845000	1597.446289	1351.088379
12150.562234	-218.845000	1596.405273	1467.925781
12150.562234	-218.845000	1595.365234	1435.460815
12150.562234	-218.845000	1594.324219	1494.871216
12150.562234	-218.845000	1593.283203	1742.537598
12150.562234	-218.845000	1592.242188	1521.873657
12150.562234	-218.845000	1591.200195	1663.908569
12150.562234	-218.845000	1590.159180	1776.092041
12150.562234	-218.845000	1589.117188	1734.549072
12150.562234	-218.845000	1588.075195	1697.634766
12150.562234	-218.845000	1587.032227	1697.441772
12150.562234	-218.845000	1585.990234	2116.845459
12150.562234	-218.845000	1584.947266	2070.780518
12150.562234	-218.845000	1583.904297	1988.093994
12150.562234	-218.845000	1582.861328	1877.972290
