#X		#Y		#Wave		#Intensity
11861.825000	1491.365000	1999.980469	16.799829
11861.825000	1491.365000	1999.016602	-202.129196
11861.825000	1491.365000	1998.052734	-52.133240
11861.825000	1491.365000	1997.087891	-31.566799
11861.825000	1491.365000	1996.123047	-118.054443
11861.825000	1491.365000	1995.158203	-11.777494
11861.825000	1491.365000	1994.193359	-101.680237
11861.825000	1491.365000	1993.228516	266.101349
11861.825000	1491.365000	1992.262695	-102.017570
11861.825000	1491.365000	1991.297852	2.355977
11861.825000	1491.365000	1990.332031	61.724766
11861.825000	1491.365000	1989.366211	100.868088
11861.825000	1491.365000	1988.399414	28.274601
11861.825000	1491.365000	1987.433594	351.086670
11861.825000	1491.365000	1986.466797	255.460999
11861.825000	1491.365000	1985.500977	297.975555
11861.825000	1491.365000	1984.534180	112.691261
11861.825000	1491.365000	1983.567383	85.328781
11861.825000	1491.365000	1982.599609	297.364380
11861.825000	1491.365000	1981.632813	168.038925
11861.825000	1491.365000	1980.665039	236.086548
11861.825000	1491.365000	1979.697266	138.335709
11861.825000	1491.365000	1978.729492	82.319580
11861.825000	1491.365000	1977.761719	80.370850
11861.825000	1491.365000	1976.792969	33.729309
11861.825000	1491.365000	1975.825195	26.342077
11861.825000	1491.365000	1974.856445	159.368256
11861.825000	1491.365000	1973.887695	235.369110
11861.825000	1491.365000	1972.918945	49.653839
11861.825000	1491.365000	1971.949219	169.600632
11861.825000	1491.365000	1970.980469	156.149094
11861.825000	1491.365000	1970.010742	112.921852
11861.825000	1491.365000	1969.041016	42.409016
11861.825000	1491.365000	1968.071289	168.892380
11861.825000	1491.365000	1967.101563	41.373295
11861.825000	1491.365000	1966.130859	307.888794
11861.825000	1491.365000	1965.161133	7.662758
11861.825000	1491.365000	1964.190430	291.018616
11861.825000	1491.365000	1963.219727	387.008911
11861.825000	1491.365000	1962.249023	315.439758
11861.825000	1491.365000	1961.277344	283.145355
11861.825000	1491.365000	1960.306641	415.611877
11861.825000	1491.365000	1959.334961	439.662415
11861.825000	1491.365000	1958.363281	-3.764877
11861.825000	1491.365000	1957.391602	194.758224
11861.825000	1491.365000	1956.419922	-5.224970
11861.825000	1491.365000	1955.447266	193.037155
11861.825000	1491.365000	1954.474609	37.195370
11861.825000	1491.365000	1953.501953	122.169441
11861.825000	1491.365000	1952.529297	172.640732
11861.825000	1491.365000	1951.556641	173.895889
11861.825000	1491.365000	1950.583984	258.596405
11861.825000	1491.365000	1949.610352	31.334414
11861.825000	1491.365000	1948.636719	25.075590
11861.825000	1491.365000	1947.663086	153.783752
11861.825000	1491.365000	1946.689453	184.230179
11861.825000	1491.365000	1945.715820	231.804153
11861.825000	1491.365000	1944.741211	200.814636
11861.825000	1491.365000	1943.767578	-92.651878
11861.825000	1491.365000	1942.792969	158.411407
11861.825000	1491.365000	1941.818359	-54.071484
11861.825000	1491.365000	1940.842773	-70.371300
11861.825000	1491.365000	1939.868164	-113.637253
11861.825000	1491.365000	1938.892578	110.220779
11861.825000	1491.365000	1937.916992	111.020935
11861.825000	1491.365000	1936.941406	8.928685
11861.825000	1491.365000	1935.965820	44.035156
11861.825000	1491.365000	1934.990234	66.887413
11861.825000	1491.365000	1934.013672	243.980469
11861.825000	1491.365000	1933.037109	-73.461884
11861.825000	1491.365000	1932.060547	-153.370453
11861.825000	1491.365000	1931.083984	-27.685911
11861.825000	1491.365000	1930.107422	159.132370
11861.825000	1491.365000	1929.129883	-57.707191
11861.825000	1491.365000	1928.153320	165.773560
11861.825000	1491.365000	1927.175781	161.789597
11861.825000	1491.365000	1926.198242	128.497452
11861.825000	1491.365000	1925.219727	43.912880
11861.825000	1491.365000	1924.242188	-30.830345
11861.825000	1491.365000	1923.263672	43.527519
11861.825000	1491.365000	1922.285156	303.552673
11861.825000	1491.365000	1921.306641	9.081758
11861.825000	1491.365000	1920.328125	-19.065298
11861.825000	1491.365000	1919.349609	87.121788
11861.825000	1491.365000	1918.370117	117.632996
11861.825000	1491.365000	1917.391602	123.771835
11861.825000	1491.365000	1916.412109	17.700333
11861.825000	1491.365000	1915.431641	-24.857576
11861.825000	1491.365000	1914.452148	-184.435791
11861.825000	1491.365000	1913.472656	-0.036854
11861.825000	1491.365000	1912.492188	-25.360441
11861.825000	1491.365000	1911.511719	59.079163
11861.825000	1491.365000	1910.531250	-61.208477
11861.825000	1491.365000	1909.550781	13.557599
11861.825000	1491.365000	1908.569336	144.382706
11861.825000	1491.365000	1907.588867	51.094994
11861.825000	1491.365000	1906.607422	-161.454819
11861.825000	1491.365000	1905.625977	25.493677
11861.825000	1491.365000	1904.644531	-89.479103
11861.825000	1491.365000	1903.662109	-187.319092
11861.825000	1491.365000	1902.680664	172.486557
11861.825000	1491.365000	1901.698242	-122.359650
11861.825000	1491.365000	1900.715820	16.010496
11861.825000	1491.365000	1899.733398	115.465202
11861.825000	1491.365000	1898.750000	-8.809649
11861.825000	1491.365000	1897.767578	134.486023
11861.825000	1491.365000	1896.784180	-77.156906
11861.825000	1491.365000	1895.800781	-62.619820
11861.825000	1491.365000	1894.817383	49.170296
11861.825000	1491.365000	1893.833984	122.096962
11861.825000	1491.365000	1892.850586	0.708687
11861.825000	1491.365000	1891.866211	59.147423
11861.825000	1491.365000	1890.881836	178.324249
11861.825000	1491.365000	1889.897461	-73.958565
11861.825000	1491.365000	1888.913086	101.131477
11861.825000	1491.365000	1887.927734	166.991257
11861.825000	1491.365000	1886.943359	-235.441208
11861.825000	1491.365000	1885.958008	-140.330658
11861.825000	1491.365000	1884.972656	-57.334946
11861.825000	1491.365000	1883.987305	251.217102
11861.825000	1491.365000	1883.001953	60.211452
11861.825000	1491.365000	1882.015625	55.989368
11861.825000	1491.365000	1881.029297	-1.508723
11861.825000	1491.365000	1880.042969	188.240738
11861.825000	1491.365000	1879.056641	62.987854
11861.825000	1491.365000	1878.070313	-265.659912
11861.825000	1491.365000	1877.083984	-39.507210
11861.825000	1491.365000	1876.096680	34.043148
11861.825000	1491.365000	1875.109375	88.238747
11861.825000	1491.365000	1874.122070	-82.664612
11861.825000	1491.365000	1873.134766	-115.516632
11861.825000	1491.365000	1872.146484	8.961567
11861.825000	1491.365000	1871.159180	-72.206062
11861.825000	1491.365000	1870.170898	-90.421623
11861.825000	1491.365000	1869.182617	41.342339
11861.825000	1491.365000	1868.194336	-3.416332
11861.825000	1491.365000	1867.205078	2.637938
11861.825000	1491.365000	1866.216797	47.392895
11861.825000	1491.365000	1865.227539	-72.164665
11861.825000	1491.365000	1864.238281	-208.563217
11861.825000	1491.365000	1863.249023	60.944000
11861.825000	1491.365000	1862.259766	-17.410913
11861.825000	1491.365000	1861.269531	-136.764008
11861.825000	1491.365000	1860.279297	-33.935928
11861.825000	1491.365000	1859.290039	-194.230835
11861.825000	1491.365000	1858.298828	-253.086395
11861.825000	1491.365000	1857.308594	117.599312
11861.825000	1491.365000	1856.318359	94.932411
11861.825000	1491.365000	1855.327148	127.765160
11861.825000	1491.365000	1854.335938	-111.905914
11861.825000	1491.365000	1853.344727	-9.096877
11861.825000	1491.365000	1852.353516	153.951584
11861.825000	1491.365000	1851.362305	114.491936
11861.825000	1491.365000	1850.370117	-67.118645
11861.825000	1491.365000	1849.377930	-120.960915
11861.825000	1491.365000	1848.385742	-8.568542
11861.825000	1491.365000	1847.393555	226.614609
11861.825000	1491.365000	1846.401367	107.747253
11861.825000	1491.365000	1845.408203	210.412109
11861.825000	1491.365000	1844.415039	77.151436
11861.825000	1491.365000	1843.421875	93.145386
11861.825000	1491.365000	1842.428711	-20.798935
11861.825000	1491.365000	1841.435547	223.739853
11861.825000	1491.365000	1840.441406	237.279037
11861.825000	1491.365000	1839.448242	77.664337
11861.825000	1491.365000	1838.454102	55.145679
11861.825000	1491.365000	1837.459961	75.894211
11861.825000	1491.365000	1836.464844	17.310974
11861.825000	1491.365000	1835.470703	62.063053
11861.825000	1491.365000	1834.475586	123.600487
11861.825000	1491.365000	1833.480469	151.470444
11861.825000	1491.365000	1832.485352	140.886292
11861.825000	1491.365000	1831.490234	103.874886
11861.825000	1491.365000	1830.495117	114.870293
11861.825000	1491.365000	1829.499023	37.029320
11861.825000	1491.365000	1828.502930	302.363098
11861.825000	1491.365000	1827.506836	294.048889
11861.825000	1491.365000	1826.510742	69.810829
11861.825000	1491.365000	1825.513672	71.081039
11861.825000	1491.365000	1824.517578	170.639374
11861.825000	1491.365000	1823.520508	-79.910217
11861.825000	1491.365000	1822.523438	285.649628
11861.825000	1491.365000	1821.526367	303.528442
11861.825000	1491.365000	1820.529297	182.386932
11861.825000	1491.365000	1819.531250	56.461750
11861.825000	1491.365000	1818.533203	-124.545189
11861.825000	1491.365000	1817.535156	-92.384300
11861.825000	1491.365000	1816.537109	71.412796
11861.825000	1491.365000	1815.539063	57.956066
11861.825000	1491.365000	1814.540039	34.886330
11861.825000	1491.365000	1813.541992	105.109314
11861.825000	1491.365000	1812.542969	194.398193
11861.825000	1491.365000	1811.543945	85.060677
11861.825000	1491.365000	1810.543945	90.513824
11861.825000	1491.365000	1809.544922	-26.035460
11861.825000	1491.365000	1808.544922	-42.182476
11861.825000	1491.365000	1807.544922	104.163918
11861.825000	1491.365000	1806.544922	118.958542
11861.825000	1491.365000	1805.544922	116.966774
11861.825000	1491.365000	1804.544922	-85.751091
11861.825000	1491.365000	1803.543945	-59.158146
11861.825000	1491.365000	1802.542969	22.291178
11861.825000	1491.365000	1801.541992	-99.295891
11861.825000	1491.365000	1800.541016	137.170319
11861.825000	1491.365000	1799.539063	-37.025429
11861.825000	1491.365000	1798.538086	318.524353
11861.825000	1491.365000	1797.536133	139.459610
11861.825000	1491.365000	1796.534180	74.890839
11861.825000	1491.365000	1795.532227	-61.267029
11861.825000	1491.365000	1794.529297	76.764679
11861.825000	1491.365000	1793.527344	-61.863663
11861.825000	1491.365000	1792.524414	126.029358
11861.825000	1491.365000	1791.521484	144.581955
11861.825000	1491.365000	1790.518555	139.227707
11861.825000	1491.365000	1789.514648	57.570221
11861.825000	1491.365000	1788.511719	92.576080
11861.825000	1491.365000	1787.507813	244.171204
11861.825000	1491.365000	1786.503906	250.402435
11861.825000	1491.365000	1785.500000	66.125328
11861.825000	1491.365000	1784.496094	217.406387
11861.825000	1491.365000	1783.491211	192.467041
11861.825000	1491.365000	1782.486328	326.850616
11861.825000	1491.365000	1781.481445	85.289658
11861.825000	1491.365000	1780.476563	164.782410
11861.825000	1491.365000	1779.471680	-143.395554
11861.825000	1491.365000	1778.465820	42.913425
11861.825000	1491.365000	1777.460938	200.549866
11861.825000	1491.365000	1776.455078	46.741943
11861.825000	1491.365000	1775.449219	-19.187071
11861.825000	1491.365000	1774.442383	259.249359
11861.825000	1491.365000	1773.436523	17.384615
11861.825000	1491.365000	1772.429688	169.684616
11861.825000	1491.365000	1771.422852	267.233765
11861.825000	1491.365000	1770.416016	286.328339
11861.825000	1491.365000	1769.409180	84.622063
11861.825000	1491.365000	1768.402344	151.016678
11861.825000	1491.365000	1767.394531	124.771713
11861.825000	1491.365000	1766.386719	-58.094296
11861.825000	1491.365000	1765.378906	0.893725
11861.825000	1491.365000	1764.371094	97.699158
11861.825000	1491.365000	1763.362305	208.591995
11861.825000	1491.365000	1762.354492	-78.805145
11861.825000	1491.365000	1761.345703	91.128197
11861.825000	1491.365000	1760.336914	-108.676674
11861.825000	1491.365000	1759.328125	37.318913
11861.825000	1491.365000	1758.318359	-6.297051
11861.825000	1491.365000	1757.308594	234.134613
11861.825000	1491.365000	1756.299805	-91.397469
11861.825000	1491.365000	1755.290039	-158.924164
11861.825000	1491.365000	1754.279297	76.367432
11861.825000	1491.365000	1753.269531	1.540248
11861.825000	1491.365000	1752.258789	96.952545
11861.825000	1491.365000	1751.249023	-22.983702
11861.825000	1491.365000	1750.238281	65.105057
11861.825000	1491.365000	1749.226563	65.580681
11861.825000	1491.365000	1748.215820	-21.492891
11861.825000	1491.365000	1747.204102	70.965424
11861.825000	1491.365000	1746.193359	-51.718292
11861.825000	1491.365000	1745.181641	-233.518967
11861.825000	1491.365000	1744.168945	151.491760
11861.825000	1491.365000	1743.157227	-200.501999
11861.825000	1491.365000	1742.144531	-96.801819
11861.825000	1491.365000	1741.132813	23.289532
11861.825000	1491.365000	1740.120117	46.463280
11861.825000	1491.365000	1739.106445	43.564873
11861.825000	1491.365000	1738.093750	-70.307434
11861.825000	1491.365000	1737.080078	120.031235
11861.825000	1491.365000	1736.067383	-97.778473
11861.825000	1491.365000	1735.053711	-2.021737
11861.825000	1491.365000	1734.040039	124.242500
11861.825000	1491.365000	1733.025391	-166.824387
11861.825000	1491.365000	1732.011719	159.521606
11861.825000	1491.365000	1730.997070	73.331566
11861.825000	1491.365000	1729.982422	144.896591
11861.825000	1491.365000	1728.967773	-85.120964
11861.825000	1491.365000	1727.952148	-39.662663
11861.825000	1491.365000	1726.937500	-17.856482
11861.825000	1491.365000	1725.921875	-102.085800
11861.825000	1491.365000	1724.906250	-68.716164
11861.825000	1491.365000	1723.890625	-176.631027
11861.825000	1491.365000	1722.875000	195.290039
11861.825000	1491.365000	1721.858398	-98.645912
11861.825000	1491.365000	1720.841797	9.541739
11861.825000	1491.365000	1719.825195	63.515480
11861.825000	1491.365000	1718.808594	-80.081703
11861.825000	1491.365000	1717.791992	53.599258
11861.825000	1491.365000	1716.774414	-66.647652
11861.825000	1491.365000	1715.756836	5.694858
11861.825000	1491.365000	1714.739258	185.959290
11861.825000	1491.365000	1713.721680	208.718414
11861.825000	1491.365000	1712.704102	55.279381
11861.825000	1491.365000	1711.685547	169.405563
11861.825000	1491.365000	1710.667969	116.765114
11861.825000	1491.365000	1709.649414	120.358795
11861.825000	1491.365000	1708.630859	27.665560
11861.825000	1491.365000	1707.611328	49.844021
11861.825000	1491.365000	1706.592773	-134.447678
11861.825000	1491.365000	1705.573242	61.081650
11861.825000	1491.365000	1704.553711	399.448456
11861.825000	1491.365000	1703.534180	48.497192
11861.825000	1491.365000	1702.513672	79.557007
11861.825000	1491.365000	1701.494141	44.922699
11861.825000	1491.365000	1700.473633	-20.250051
11861.825000	1491.365000	1699.453125	-90.169868
11861.825000	1491.365000	1698.432617	-113.318428
11861.825000	1491.365000	1697.412109	135.031586
11861.825000	1491.365000	1696.390625	43.784172
11861.825000	1491.365000	1695.369141	-84.957390
11861.825000	1491.365000	1694.347656	-21.868080
11861.825000	1491.365000	1693.326172	55.148628
11861.825000	1491.365000	1692.304688	-41.027527
11861.825000	1491.365000	1691.282227	250.926102
11861.825000	1491.365000	1690.260742	-41.808102
11861.825000	1491.365000	1689.238281	60.528522
11861.825000	1491.365000	1688.214844	-49.944210
11861.825000	1491.365000	1687.192383	12.472199
11861.825000	1491.365000	1686.168945	-9.330201
11861.825000	1491.365000	1685.146484	281.805389
11861.825000	1491.365000	1684.123047	264.477844
11861.825000	1491.365000	1683.099609	25.267994
11861.825000	1491.365000	1682.075195	47.519497
11861.825000	1491.365000	1681.051758	235.413177
11861.825000	1491.365000	1680.027344	346.143097
11861.825000	1491.365000	1679.002930	46.137154
11861.825000	1491.365000	1677.978516	-78.877098
11861.825000	1491.365000	1676.953125	45.618534
11861.825000	1491.365000	1675.928711	218.976471
11861.825000	1491.365000	1674.903320	252.310120
11861.825000	1491.365000	1673.877930	73.457916
11861.825000	1491.365000	1672.852539	367.677734
11861.825000	1491.365000	1671.826172	167.760040
11861.825000	1491.365000	1670.800781	214.793182
11861.825000	1491.365000	1669.774414	26.501421
11861.825000	1491.365000	1668.748047	231.751816
11861.825000	1491.365000	1667.721680	43.406841
11861.825000	1491.365000	1666.694336	404.397308
11861.825000	1491.365000	1665.667969	299.754578
11861.825000	1491.365000	1664.640625	250.926056
11861.825000	1491.365000	1663.613281	330.008606
11861.825000	1491.365000	1662.585938	432.265137
11861.825000	1491.365000	1661.557617	250.710281
11861.825000	1491.365000	1660.530273	352.835846
11861.825000	1491.365000	1659.501953	687.312500
11861.825000	1491.365000	1658.473633	287.194336
11861.825000	1491.365000	1657.444336	328.661957
11861.825000	1491.365000	1656.416016	502.501465
11861.825000	1491.365000	1655.386719	381.223999
11861.825000	1491.365000	1654.358398	408.589569
11861.825000	1491.365000	1653.328125	468.378143
11861.825000	1491.365000	1652.298828	669.720398
11861.825000	1491.365000	1651.269531	448.529266
11861.825000	1491.365000	1650.239258	733.238892
11861.825000	1491.365000	1649.208984	692.991821
11861.825000	1491.365000	1648.178711	856.846924
11861.825000	1491.365000	1647.148438	981.176575
11861.825000	1491.365000	1646.117188	599.931458
11861.825000	1491.365000	1645.086914	701.010010
11861.825000	1491.365000	1644.055664	762.600342
11861.825000	1491.365000	1643.024414	759.248474
11861.825000	1491.365000	1641.992188	788.291870
11861.825000	1491.365000	1640.960938	930.813538
11861.825000	1491.365000	1639.928711	1151.984009
11861.825000	1491.365000	1638.896484	1095.174683
11861.825000	1491.365000	1637.864258	904.083923
11861.825000	1491.365000	1636.832031	1224.586426
11861.825000	1491.365000	1635.798828	1181.594360
11861.825000	1491.365000	1634.766602	1265.870117
11861.825000	1491.365000	1633.733398	1188.146118
11861.825000	1491.365000	1632.699219	1149.739502
11861.825000	1491.365000	1631.666016	1159.905273
11861.825000	1491.365000	1630.632813	1331.888062
11861.825000	1491.365000	1629.598633	1300.363037
11861.825000	1491.365000	1628.564453	1425.988770
11861.825000	1491.365000	1627.530273	1355.151489
11861.825000	1491.365000	1626.495117	1494.543701
11861.825000	1491.365000	1625.460938	1583.071411
11861.825000	1491.365000	1624.425781	1602.265991
11861.825000	1491.365000	1623.390625	1508.314575
11861.825000	1491.365000	1622.355469	1529.812134
11861.825000	1491.365000	1621.319336	1516.664429
11861.825000	1491.365000	1620.284180	1715.823975
11861.825000	1491.365000	1619.248047	1725.712036
11861.825000	1491.365000	1618.211914	1382.691528
11861.825000	1491.365000	1617.174805	1464.120972
11861.825000	1491.365000	1616.138672	1642.373047
11861.825000	1491.365000	1615.101563	1615.382690
11861.825000	1491.365000	1614.065430	1588.420776
11861.825000	1491.365000	1613.027344	1849.492676
11861.825000	1491.365000	1611.990234	1748.775513
11861.825000	1491.365000	1610.953125	1650.409302
11861.825000	1491.365000	1609.915039	1750.137695
11861.825000	1491.365000	1608.876953	1693.266846
11861.825000	1491.365000	1607.838867	1928.799927
11861.825000	1491.365000	1606.800781	1897.263672
11861.825000	1491.365000	1605.761719	1840.431274
11861.825000	1491.365000	1604.723633	1808.961914
11861.825000	1491.365000	1603.684570	1805.113281
11861.825000	1491.365000	1602.644531	1861.070190
11861.825000	1491.365000	1601.605469	1912.445068
11861.825000	1491.365000	1600.566406	2028.192505
11861.825000	1491.365000	1599.526367	1730.175659
11861.825000	1491.365000	1598.486328	2149.297852
11861.825000	1491.365000	1597.446289	1936.439331
11861.825000	1491.365000	1596.405273	1875.293457
11861.825000	1491.365000	1595.365234	1952.020752
11861.825000	1491.365000	1594.324219	1792.219116
11861.825000	1491.365000	1593.283203	1898.829102
11861.825000	1491.365000	1592.242188	1879.187744
11861.825000	1491.365000	1591.200195	2059.234863
11861.825000	1491.365000	1590.159180	2067.177246
11861.825000	1491.365000	1589.117188	1650.750122
11861.825000	1491.365000	1588.075195	1773.514648
11861.825000	1491.365000	1587.032227	1889.379272
11861.825000	1491.365000	1585.990234	1879.160278
11861.825000	1491.365000	1584.947266	1896.481445
11861.825000	1491.365000	1583.904297	1975.722290
11861.825000	1491.365000	1582.861328	1619.624512
