#X		#Y		#Wave		#Intensity
11924.487766	1417.915000	1999.980469	57.557907
11924.487766	1417.915000	1999.016602	136.797806
11924.487766	1417.915000	1998.052734	157.224625
11924.487766	1417.915000	1997.087891	41.191906
11924.487766	1417.915000	1996.123047	91.052658
11924.487766	1417.915000	1995.158203	-139.177719
11924.487766	1417.915000	1994.193359	153.127411
11924.487766	1417.915000	1993.228516	53.931507
11924.487766	1417.915000	1992.262695	66.049835
11924.487766	1417.915000	1991.297852	-55.638115
11924.487766	1417.915000	1990.332031	-70.986008
11924.487766	1417.915000	1989.366211	-7.268344
11924.487766	1417.915000	1988.399414	-30.282040
11924.487766	1417.915000	1987.433594	240.947815
11924.487766	1417.915000	1986.466797	165.735184
11924.487766	1417.915000	1985.500977	122.586525
11924.487766	1417.915000	1984.534180	202.958740
11924.487766	1417.915000	1983.567383	-15.874577
11924.487766	1417.915000	1982.599609	-130.932159
11924.487766	1417.915000	1981.632813	-26.139645
11924.487766	1417.915000	1980.665039	80.992950
11924.487766	1417.915000	1979.697266	0.290090
11924.487766	1417.915000	1978.729492	-26.139479
11924.487766	1417.915000	1977.761719	233.758224
11924.487766	1417.915000	1976.792969	-12.558946
11924.487766	1417.915000	1975.825195	29.900953
11924.487766	1417.915000	1974.856445	55.000515
11924.487766	1417.915000	1973.887695	1.074046
11924.487766	1417.915000	1972.918945	40.835335
11924.487766	1417.915000	1971.949219	196.430054
11924.487766	1417.915000	1970.980469	277.934448
11924.487766	1417.915000	1970.010742	162.127136
11924.487766	1417.915000	1969.041016	-104.046242
11924.487766	1417.915000	1968.071289	-22.698406
11924.487766	1417.915000	1967.101563	-35.059307
11924.487766	1417.915000	1966.130859	275.248444
11924.487766	1417.915000	1965.161133	43.536732
11924.487766	1417.915000	1964.190430	343.774567
11924.487766	1417.915000	1963.219727	257.313812
11924.487766	1417.915000	1962.249023	28.071650
11924.487766	1417.915000	1961.277344	202.507019
11924.487766	1417.915000	1960.306641	-48.858116
11924.487766	1417.915000	1959.334961	189.426025
11924.487766	1417.915000	1958.363281	21.724899
11924.487766	1417.915000	1957.391602	90.152679
11924.487766	1417.915000	1956.419922	8.535421
11924.487766	1417.915000	1955.447266	17.884302
11924.487766	1417.915000	1954.474609	-12.122839
11924.487766	1417.915000	1953.501953	29.127987
11924.487766	1417.915000	1952.529297	-57.425064
11924.487766	1417.915000	1951.556641	199.958847
11924.487766	1417.915000	1950.583984	194.422852
11924.487766	1417.915000	1949.610352	117.656441
11924.487766	1417.915000	1948.636719	28.628292
11924.487766	1417.915000	1947.663086	-45.652378
11924.487766	1417.915000	1946.689453	142.694687
11924.487766	1417.915000	1945.715820	235.259644
11924.487766	1417.915000	1944.741211	129.054947
11924.487766	1417.915000	1943.767578	15.525270
11924.487766	1417.915000	1942.792969	149.728302
11924.487766	1417.915000	1941.818359	151.467499
11924.487766	1417.915000	1940.842773	50.233612
11924.487766	1417.915000	1939.868164	137.770020
11924.487766	1417.915000	1938.892578	90.483841
11924.487766	1417.915000	1937.916992	-30.291355
11924.487766	1417.915000	1936.941406	194.389709
11924.487766	1417.915000	1935.965820	245.088455
11924.487766	1417.915000	1934.990234	31.296009
11924.487766	1417.915000	1934.013672	-45.307690
11924.487766	1417.915000	1933.037109	118.015038
11924.487766	1417.915000	1932.060547	178.487610
11924.487766	1417.915000	1931.083984	48.074596
11924.487766	1417.915000	1930.107422	30.257170
11924.487766	1417.915000	1929.129883	44.248337
11924.487766	1417.915000	1928.153320	-103.169945
11924.487766	1417.915000	1927.175781	86.907135
11924.487766	1417.915000	1926.198242	59.340038
11924.487766	1417.915000	1925.219727	166.223526
11924.487766	1417.915000	1924.242188	197.318848
11924.487766	1417.915000	1923.263672	40.271980
11924.487766	1417.915000	1922.285156	193.540894
11924.487766	1417.915000	1921.306641	151.366226
11924.487766	1417.915000	1920.328125	4.211243
11924.487766	1417.915000	1919.349609	86.626106
11924.487766	1417.915000	1918.370117	-77.528915
11924.487766	1417.915000	1917.391602	-39.038818
11924.487766	1417.915000	1916.412109	-42.036961
11924.487766	1417.915000	1915.431641	-64.540634
11924.487766	1417.915000	1914.452148	100.798820
11924.487766	1417.915000	1913.472656	29.525156
11924.487766	1417.915000	1912.492188	-158.751450
11924.487766	1417.915000	1911.511719	-47.085148
11924.487766	1417.915000	1910.531250	186.424576
11924.487766	1417.915000	1909.550781	-74.849136
11924.487766	1417.915000	1908.569336	29.466589
11924.487766	1417.915000	1907.588867	29.005207
11924.487766	1417.915000	1906.607422	79.703705
11924.487766	1417.915000	1905.625977	69.516495
11924.487766	1417.915000	1904.644531	-16.129662
11924.487766	1417.915000	1903.662109	68.665398
11924.487766	1417.915000	1902.680664	-119.141846
11924.487766	1417.915000	1901.698242	-85.434685
11924.487766	1417.915000	1900.715820	150.203049
11924.487766	1417.915000	1899.733398	120.630638
11924.487766	1417.915000	1898.750000	-139.957825
11924.487766	1417.915000	1897.767578	-162.146133
11924.487766	1417.915000	1896.784180	80.671745
11924.487766	1417.915000	1895.800781	68.195992
11924.487766	1417.915000	1894.817383	-87.641907
11924.487766	1417.915000	1893.833984	72.451805
11924.487766	1417.915000	1892.850586	125.609749
11924.487766	1417.915000	1891.866211	37.888298
11924.487766	1417.915000	1890.881836	219.756058
11924.487766	1417.915000	1889.897461	10.677649
11924.487766	1417.915000	1888.913086	117.254379
11924.487766	1417.915000	1887.927734	70.901001
11924.487766	1417.915000	1886.943359	41.561638
11924.487766	1417.915000	1885.958008	-196.398788
11924.487766	1417.915000	1884.972656	-24.333105
11924.487766	1417.915000	1883.987305	-63.309971
11924.487766	1417.915000	1883.001953	84.437881
11924.487766	1417.915000	1882.015625	1.834955
11924.487766	1417.915000	1881.029297	-54.067341
11924.487766	1417.915000	1880.042969	168.745285
11924.487766	1417.915000	1879.056641	270.335968
11924.487766	1417.915000	1878.070313	-52.030045
11924.487766	1417.915000	1877.083984	68.954491
11924.487766	1417.915000	1876.096680	192.321518
11924.487766	1417.915000	1875.109375	114.698494
11924.487766	1417.915000	1874.122070	-120.229431
11924.487766	1417.915000	1873.134766	32.162338
11924.487766	1417.915000	1872.146484	-4.235870
11924.487766	1417.915000	1871.159180	240.018661
11924.487766	1417.915000	1870.170898	-16.507845
11924.487766	1417.915000	1869.182617	22.103979
11924.487766	1417.915000	1868.194336	58.287296
11924.487766	1417.915000	1867.205078	84.788864
11924.487766	1417.915000	1866.216797	19.439034
11924.487766	1417.915000	1865.227539	-50.719410
11924.487766	1417.915000	1864.238281	101.430122
11924.487766	1417.915000	1863.249023	-53.261257
11924.487766	1417.915000	1862.259766	23.962820
11924.487766	1417.915000	1861.269531	-14.749533
11924.487766	1417.915000	1860.279297	47.952633
11924.487766	1417.915000	1859.290039	59.939785
11924.487766	1417.915000	1858.298828	83.986305
11924.487766	1417.915000	1857.308594	4.268020
11924.487766	1417.915000	1856.318359	-82.659729
11924.487766	1417.915000	1855.327148	-10.366635
11924.487766	1417.915000	1854.335938	30.546091
11924.487766	1417.915000	1853.344727	-49.115402
11924.487766	1417.915000	1852.353516	-172.142624
11924.487766	1417.915000	1851.362305	117.014732
11924.487766	1417.915000	1850.370117	131.347488
11924.487766	1417.915000	1849.377930	-18.163542
11924.487766	1417.915000	1848.385742	0.994836
11924.487766	1417.915000	1847.393555	61.080906
11924.487766	1417.915000	1846.401367	-11.298400
11924.487766	1417.915000	1845.408203	68.011787
11924.487766	1417.915000	1844.415039	12.490352
11924.487766	1417.915000	1843.421875	7.518641
11924.487766	1417.915000	1842.428711	156.531708
11924.487766	1417.915000	1841.435547	105.808350
11924.487766	1417.915000	1840.441406	79.145973
11924.487766	1417.915000	1839.448242	-19.660110
11924.487766	1417.915000	1838.454102	-29.481405
11924.487766	1417.915000	1837.459961	-159.503021
11924.487766	1417.915000	1836.464844	37.373203
11924.487766	1417.915000	1835.470703	-66.204811
11924.487766	1417.915000	1834.475586	-100.086182
11924.487766	1417.915000	1833.480469	63.000088
11924.487766	1417.915000	1832.485352	103.529114
11924.487766	1417.915000	1831.490234	11.965250
11924.487766	1417.915000	1830.495117	-50.771069
11924.487766	1417.915000	1829.499023	167.327408
11924.487766	1417.915000	1828.502930	-17.836401
11924.487766	1417.915000	1827.506836	101.768280
11924.487766	1417.915000	1826.510742	-37.768188
11924.487766	1417.915000	1825.513672	48.181519
11924.487766	1417.915000	1824.517578	50.152382
11924.487766	1417.915000	1823.520508	30.525473
11924.487766	1417.915000	1822.523438	92.387405
11924.487766	1417.915000	1821.526367	103.877388
11924.487766	1417.915000	1820.529297	-117.085098
11924.487766	1417.915000	1819.531250	-96.018326
11924.487766	1417.915000	1818.533203	71.131210
11924.487766	1417.915000	1817.535156	17.872849
11924.487766	1417.915000	1816.537109	172.922958
11924.487766	1417.915000	1815.539063	71.744019
11924.487766	1417.915000	1814.540039	-15.059277
11924.487766	1417.915000	1813.541992	-15.704409
11924.487766	1417.915000	1812.542969	53.011581
11924.487766	1417.915000	1811.543945	-146.238495
11924.487766	1417.915000	1810.543945	75.491791
11924.487766	1417.915000	1809.544922	122.557419
11924.487766	1417.915000	1808.544922	42.869190
11924.487766	1417.915000	1807.544922	6.211360
11924.487766	1417.915000	1806.544922	124.880432
11924.487766	1417.915000	1805.544922	37.992256
11924.487766	1417.915000	1804.544922	87.278893
11924.487766	1417.915000	1803.543945	-33.063366
11924.487766	1417.915000	1802.542969	35.267460
11924.487766	1417.915000	1801.541992	-1.510220
11924.487766	1417.915000	1800.541016	178.928452
11924.487766	1417.915000	1799.539063	-24.986914
11924.487766	1417.915000	1798.538086	179.192047
11924.487766	1417.915000	1797.536133	159.000656
11924.487766	1417.915000	1796.534180	98.237167
11924.487766	1417.915000	1795.532227	49.391521
11924.487766	1417.915000	1794.529297	181.747711
11924.487766	1417.915000	1793.527344	-38.802235
11924.487766	1417.915000	1792.524414	29.105856
11924.487766	1417.915000	1791.521484	111.254799
11924.487766	1417.915000	1790.518555	179.045685
11924.487766	1417.915000	1789.514648	-20.024719
11924.487766	1417.915000	1788.511719	-126.163658
11924.487766	1417.915000	1787.507813	-15.600970
11924.487766	1417.915000	1786.503906	75.841843
11924.487766	1417.915000	1785.500000	-70.819839
11924.487766	1417.915000	1784.496094	137.148132
11924.487766	1417.915000	1783.491211	11.878134
11924.487766	1417.915000	1782.486328	79.321274
11924.487766	1417.915000	1781.481445	-79.257042
11924.487766	1417.915000	1780.476563	-140.307205
11924.487766	1417.915000	1779.471680	-51.575497
11924.487766	1417.915000	1778.465820	29.954111
11924.487766	1417.915000	1777.460938	30.611254
11924.487766	1417.915000	1776.455078	21.726036
11924.487766	1417.915000	1775.449219	-44.212078
11924.487766	1417.915000	1774.442383	82.245468
11924.487766	1417.915000	1773.436523	-119.120232
11924.487766	1417.915000	1772.429688	185.319519
11924.487766	1417.915000	1771.422852	197.601227
11924.487766	1417.915000	1770.416016	65.052864
11924.487766	1417.915000	1769.409180	74.908699
11924.487766	1417.915000	1768.402344	32.524078
11924.487766	1417.915000	1767.394531	82.635468
11924.487766	1417.915000	1766.386719	137.433868
11924.487766	1417.915000	1765.378906	78.351784
11924.487766	1417.915000	1764.371094	149.653793
11924.487766	1417.915000	1763.362305	69.181709
11924.487766	1417.915000	1762.354492	-61.063808
11924.487766	1417.915000	1761.345703	-60.975216
11924.487766	1417.915000	1760.336914	140.449265
11924.487766	1417.915000	1759.328125	171.218384
11924.487766	1417.915000	1758.318359	-63.300797
11924.487766	1417.915000	1757.308594	0.566506
11924.487766	1417.915000	1756.299805	-23.213797
11924.487766	1417.915000	1755.290039	94.984032
11924.487766	1417.915000	1754.279297	-92.166306
11924.487766	1417.915000	1753.269531	-239.058990
11924.487766	1417.915000	1752.258789	25.657137
11924.487766	1417.915000	1751.249023	-26.674671
11924.487766	1417.915000	1750.238281	-41.194603
11924.487766	1417.915000	1749.226563	3.353118
11924.487766	1417.915000	1748.215820	-30.150894
11924.487766	1417.915000	1747.204102	49.751614
11924.487766	1417.915000	1746.193359	20.902340
11924.487766	1417.915000	1745.181641	-59.947617
11924.487766	1417.915000	1744.168945	26.885294
11924.487766	1417.915000	1743.157227	47.532063
11924.487766	1417.915000	1742.144531	-5.061086
11924.487766	1417.915000	1741.132813	-57.666328
11924.487766	1417.915000	1740.120117	0.630213
11924.487766	1417.915000	1739.106445	113.135170
11924.487766	1417.915000	1738.093750	-104.720291
11924.487766	1417.915000	1737.080078	-70.149429
11924.487766	1417.915000	1736.067383	-16.758999
11924.487766	1417.915000	1735.053711	3.561829
11924.487766	1417.915000	1734.040039	-30.382328
11924.487766	1417.915000	1733.025391	-328.328583
11924.487766	1417.915000	1732.011719	54.827557
11924.487766	1417.915000	1730.997070	46.696663
11924.487766	1417.915000	1729.982422	5.554227
11924.487766	1417.915000	1728.967773	11.495132
11924.487766	1417.915000	1727.952148	5.620037
11924.487766	1417.915000	1726.937500	-85.036545
11924.487766	1417.915000	1725.921875	134.999954
11924.487766	1417.915000	1724.906250	-56.914726
11924.487766	1417.915000	1723.890625	-39.384869
11924.487766	1417.915000	1722.875000	-203.034302
11924.487766	1417.915000	1721.858398	35.527504
11924.487766	1417.915000	1720.841797	-130.497818
11924.487766	1417.915000	1719.825195	72.623322
11924.487766	1417.915000	1718.808594	0.609923
11924.487766	1417.915000	1717.791992	-19.706743
11924.487766	1417.915000	1716.774414	-21.255590
11924.487766	1417.915000	1715.756836	-39.282085
11924.487766	1417.915000	1714.739258	111.779442
11924.487766	1417.915000	1713.721680	107.758362
11924.487766	1417.915000	1712.704102	19.179335
11924.487766	1417.915000	1711.685547	97.268608
11924.487766	1417.915000	1710.667969	88.459236
11924.487766	1417.915000	1709.649414	159.400696
11924.487766	1417.915000	1708.630859	164.590912
11924.487766	1417.915000	1707.611328	-10.873848
11924.487766	1417.915000	1706.592773	59.950481
11924.487766	1417.915000	1705.573242	210.433853
11924.487766	1417.915000	1704.553711	159.216934
11924.487766	1417.915000	1703.534180	37.673061
11924.487766	1417.915000	1702.513672	-44.020535
11924.487766	1417.915000	1701.494141	47.671314
11924.487766	1417.915000	1700.473633	97.128090
11924.487766	1417.915000	1699.453125	-82.986923
11924.487766	1417.915000	1698.432617	139.697693
11924.487766	1417.915000	1697.412109	102.397141
11924.487766	1417.915000	1696.390625	46.352947
11924.487766	1417.915000	1695.369141	86.251961
11924.487766	1417.915000	1694.347656	44.214657
11924.487766	1417.915000	1693.326172	16.203302
11924.487766	1417.915000	1692.304688	27.936041
11924.487766	1417.915000	1691.282227	-60.921848
11924.487766	1417.915000	1690.260742	37.275749
11924.487766	1417.915000	1689.238281	67.614868
11924.487766	1417.915000	1688.214844	9.100719
11924.487766	1417.915000	1687.192383	-93.808922
11924.487766	1417.915000	1686.168945	-91.577934
11924.487766	1417.915000	1685.146484	92.823830
11924.487766	1417.915000	1684.123047	45.927521
11924.487766	1417.915000	1683.099609	-21.988874
11924.487766	1417.915000	1682.075195	-31.547335
11924.487766	1417.915000	1681.051758	61.576408
11924.487766	1417.915000	1680.027344	89.297157
11924.487766	1417.915000	1679.002930	317.630310
11924.487766	1417.915000	1677.978516	130.644623
11924.487766	1417.915000	1676.953125	118.618462
11924.487766	1417.915000	1675.928711	108.912422
11924.487766	1417.915000	1674.903320	162.129623
11924.487766	1417.915000	1673.877930	238.613678
11924.487766	1417.915000	1672.852539	-22.856653
11924.487766	1417.915000	1671.826172	249.304535
11924.487766	1417.915000	1670.800781	481.746124
11924.487766	1417.915000	1669.774414	131.814209
11924.487766	1417.915000	1668.748047	17.187510
11924.487766	1417.915000	1667.721680	151.698502
11924.487766	1417.915000	1666.694336	32.416420
11924.487766	1417.915000	1665.667969	15.567451
11924.487766	1417.915000	1664.640625	201.135300
11924.487766	1417.915000	1663.613281	188.875870
11924.487766	1417.915000	1662.585938	288.248627
11924.487766	1417.915000	1661.557617	189.900879
11924.487766	1417.915000	1660.530273	42.757191
11924.487766	1417.915000	1659.501953	-129.919540
11924.487766	1417.915000	1658.473633	155.304413
11924.487766	1417.915000	1657.444336	-28.977394
11924.487766	1417.915000	1656.416016	279.323761
11924.487766	1417.915000	1655.386719	69.515656
11924.487766	1417.915000	1654.358398	40.921379
11924.487766	1417.915000	1653.328125	51.787430
11924.487766	1417.915000	1652.298828	246.035309
11924.487766	1417.915000	1651.269531	245.238052
11924.487766	1417.915000	1650.239258	116.798798
11924.487766	1417.915000	1649.208984	171.683563
11924.487766	1417.915000	1648.178711	323.963165
11924.487766	1417.915000	1647.148438	420.515076
11924.487766	1417.915000	1646.117188	308.333191
11924.487766	1417.915000	1645.086914	393.245667
11924.487766	1417.915000	1644.055664	385.399994
11924.487766	1417.915000	1643.024414	502.688965
11924.487766	1417.915000	1641.992188	524.928772
11924.487766	1417.915000	1640.960938	482.298218
11924.487766	1417.915000	1639.928711	536.947632
11924.487766	1417.915000	1638.896484	450.322662
11924.487766	1417.915000	1637.864258	511.894470
11924.487766	1417.915000	1636.832031	575.754456
11924.487766	1417.915000	1635.798828	644.209961
11924.487766	1417.915000	1634.766602	696.446594
11924.487766	1417.915000	1633.733398	771.788574
11924.487766	1417.915000	1632.699219	687.506958
11924.487766	1417.915000	1631.666016	563.952393
11924.487766	1417.915000	1630.632813	828.857056
11924.487766	1417.915000	1629.598633	675.268555
11924.487766	1417.915000	1628.564453	745.914795
11924.487766	1417.915000	1627.530273	851.193665
11924.487766	1417.915000	1626.495117	720.791504
11924.487766	1417.915000	1625.460938	823.730896
11924.487766	1417.915000	1624.425781	924.318420
11924.487766	1417.915000	1623.390625	692.399109
11924.487766	1417.915000	1622.355469	963.800720
11924.487766	1417.915000	1621.319336	847.363770
11924.487766	1417.915000	1620.284180	786.363647
11924.487766	1417.915000	1619.248047	711.544617
11924.487766	1417.915000	1618.211914	862.806396
11924.487766	1417.915000	1617.174805	894.092163
11924.487766	1417.915000	1616.138672	817.010193
11924.487766	1417.915000	1615.101563	760.709106
11924.487766	1417.915000	1614.065430	745.929993
11924.487766	1417.915000	1613.027344	862.501587
11924.487766	1417.915000	1611.990234	790.124512
11924.487766	1417.915000	1610.953125	692.447021
11924.487766	1417.915000	1609.915039	1009.352966
11924.487766	1417.915000	1608.876953	932.409851
11924.487766	1417.915000	1607.838867	830.186462
11924.487766	1417.915000	1606.800781	608.328918
11924.487766	1417.915000	1605.761719	814.588074
11924.487766	1417.915000	1604.723633	714.785950
11924.487766	1417.915000	1603.684570	861.164124
11924.487766	1417.915000	1602.644531	805.106018
11924.487766	1417.915000	1601.605469	778.982178
11924.487766	1417.915000	1600.566406	860.935303
11924.487766	1417.915000	1599.526367	986.538574
11924.487766	1417.915000	1598.486328	703.054810
11924.487766	1417.915000	1597.446289	752.852600
11924.487766	1417.915000	1596.405273	906.014160
11924.487766	1417.915000	1595.365234	753.677368
11924.487766	1417.915000	1594.324219	778.224915
11924.487766	1417.915000	1593.283203	724.724060
11924.487766	1417.915000	1592.242188	845.712402
11924.487766	1417.915000	1591.200195	594.890320
11924.487766	1417.915000	1590.159180	839.797913
11924.487766	1417.915000	1589.117188	855.223328
11924.487766	1417.915000	1588.075195	845.434814
11924.487766	1417.915000	1587.032227	592.595825
11924.487766	1417.915000	1585.990234	825.931763
11924.487766	1417.915000	1584.947266	903.321716
11924.487766	1417.915000	1583.904297	769.861145
11924.487766	1417.915000	1582.861328	867.901917
11924.487766	1417.915000	1581.818359	794.112610
