#X		#Y		#Wave		#Intensity
11861.825000	1557.470000	1999.980469	-101.367378
11861.825000	1557.470000	1999.016602	-10.561931
11861.825000	1557.470000	1998.052734	17.487272
11861.825000	1557.470000	1997.087891	50.380871
11861.825000	1557.470000	1996.123047	48.475395
11861.825000	1557.470000	1995.158203	-8.024716
11861.825000	1557.470000	1994.193359	34.472111
11861.825000	1557.470000	1993.228516	-22.189425
11861.825000	1557.470000	1992.262695	-106.151390
11861.825000	1557.470000	1991.297852	47.467087
11861.825000	1557.470000	1990.332031	52.451611
11861.825000	1557.470000	1989.366211	32.609661
11861.825000	1557.470000	1988.399414	-36.781933
11861.825000	1557.470000	1987.433594	0.138373
11861.825000	1557.470000	1986.466797	71.595749
11861.825000	1557.470000	1985.500977	-74.634491
11861.825000	1557.470000	1984.534180	13.977108
11861.825000	1557.470000	1983.567383	40.697666
11861.825000	1557.470000	1982.599609	-11.734803
11861.825000	1557.470000	1981.632813	-39.501190
11861.825000	1557.470000	1980.665039	26.555908
11861.825000	1557.470000	1979.697266	23.375553
11861.825000	1557.470000	1978.729492	121.387108
11861.825000	1557.470000	1977.761719	14.386578
11861.825000	1557.470000	1976.792969	-3.759490
11861.825000	1557.470000	1975.825195	-29.351707
11861.825000	1557.470000	1974.856445	120.216347
11861.825000	1557.470000	1973.887695	20.504633
11861.825000	1557.470000	1972.918945	-12.613417
11861.825000	1557.470000	1971.949219	-23.565407
11861.825000	1557.470000	1970.980469	-2.498149
11861.825000	1557.470000	1970.010742	-20.922085
11861.825000	1557.470000	1969.041016	19.780380
11861.825000	1557.470000	1968.071289	90.004921
11861.825000	1557.470000	1967.101563	64.077835
11861.825000	1557.470000	1966.130859	-13.604954
11861.825000	1557.470000	1965.161133	14.620468
11861.825000	1557.470000	1964.190430	79.743744
11861.825000	1557.470000	1963.219727	61.104858
11861.825000	1557.470000	1962.249023	39.984993
11861.825000	1557.470000	1961.277344	102.527061
11861.825000	1557.470000	1960.306641	108.426804
11861.825000	1557.470000	1959.334961	79.857994
11861.825000	1557.470000	1958.363281	61.118084
11861.825000	1557.470000	1957.391602	-41.251907
11861.825000	1557.470000	1956.419922	-25.576477
11861.825000	1557.470000	1955.447266	24.492771
11861.825000	1557.470000	1954.474609	-63.118587
11861.825000	1557.470000	1953.501953	55.717495
11861.825000	1557.470000	1952.529297	41.814812
11861.825000	1557.470000	1951.556641	-87.555588
11861.825000	1557.470000	1950.583984	-17.943489
11861.825000	1557.470000	1949.610352	51.630829
11861.825000	1557.470000	1948.636719	-50.696465
11861.825000	1557.470000	1947.663086	23.747654
11861.825000	1557.470000	1946.689453	-51.556931
11861.825000	1557.470000	1945.715820	81.735840
11861.825000	1557.470000	1944.741211	-10.740928
11861.825000	1557.470000	1943.767578	61.158405
11861.825000	1557.470000	1942.792969	52.092724
11861.825000	1557.470000	1941.818359	-72.219170
11861.825000	1557.470000	1940.842773	33.957500
11861.825000	1557.470000	1939.868164	-100.116455
11861.825000	1557.470000	1938.892578	69.737251
11861.825000	1557.470000	1937.916992	94.963898
11861.825000	1557.470000	1936.941406	12.391472
11861.825000	1557.470000	1935.965820	67.009102
11861.825000	1557.470000	1934.990234	79.976044
11861.825000	1557.470000	1934.013672	34.176559
11861.825000	1557.470000	1933.037109	5.530432
11861.825000	1557.470000	1932.060547	-13.313654
11861.825000	1557.470000	1931.083984	-5.231930
11861.825000	1557.470000	1930.107422	-16.723209
11861.825000	1557.470000	1929.129883	62.297123
11861.825000	1557.470000	1928.153320	87.488022
11861.825000	1557.470000	1927.175781	-9.586736
11861.825000	1557.470000	1926.198242	-25.945522
11861.825000	1557.470000	1925.219727	-15.407842
11861.825000	1557.470000	1924.242188	-56.188385
11861.825000	1557.470000	1923.263672	13.001197
11861.825000	1557.470000	1922.285156	69.955666
11861.825000	1557.470000	1921.306641	-17.209715
11861.825000	1557.470000	1920.328125	61.718456
11861.825000	1557.470000	1919.349609	-37.608700
11861.825000	1557.470000	1918.370117	43.746559
11861.825000	1557.470000	1917.391602	117.756836
11861.825000	1557.470000	1916.412109	18.493399
11861.825000	1557.470000	1915.431641	104.691322
11861.825000	1557.470000	1914.452148	-11.593400
11861.825000	1557.470000	1913.472656	25.816906
11861.825000	1557.470000	1912.492188	43.713207
11861.825000	1557.470000	1911.511719	34.793327
11861.825000	1557.470000	1910.531250	-93.550049
11861.825000	1557.470000	1909.550781	65.726135
11861.825000	1557.470000	1908.569336	49.519753
11861.825000	1557.470000	1907.588867	130.771118
11861.825000	1557.470000	1906.607422	124.316917
11861.825000	1557.470000	1905.625977	42.382915
11861.825000	1557.470000	1904.644531	-5.426376
11861.825000	1557.470000	1903.662109	-4.525595
11861.825000	1557.470000	1902.680664	-3.616422
11861.825000	1557.470000	1901.698242	-51.367287
11861.825000	1557.470000	1900.715820	-48.001732
11861.825000	1557.470000	1899.733398	-3.277849
11861.825000	1557.470000	1898.750000	104.667778
11861.825000	1557.470000	1897.767578	3.470742
11861.825000	1557.470000	1896.784180	26.302969
11861.825000	1557.470000	1895.800781	-16.492039
11861.825000	1557.470000	1894.817383	33.082462
11861.825000	1557.470000	1893.833984	-4.822985
11861.825000	1557.470000	1892.850586	47.175312
11861.825000	1557.470000	1891.866211	116.162437
11861.825000	1557.470000	1890.881836	22.431995
11861.825000	1557.470000	1889.897461	23.431623
11861.825000	1557.470000	1888.913086	70.559128
11861.825000	1557.470000	1887.927734	-112.887993
11861.825000	1557.470000	1886.943359	-109.416519
11861.825000	1557.470000	1885.958008	-28.306107
11861.825000	1557.470000	1884.972656	-100.033249
11861.825000	1557.470000	1883.987305	63.513210
11861.825000	1557.470000	1883.001953	-8.192053
11861.825000	1557.470000	1882.015625	72.862801
11861.825000	1557.470000	1881.029297	86.026657
11861.825000	1557.470000	1880.042969	2.257334
11861.825000	1557.470000	1879.056641	-30.594547
11861.825000	1557.470000	1878.070313	62.537949
11861.825000	1557.470000	1877.083984	-13.898614
11861.825000	1557.470000	1876.096680	38.038761
11861.825000	1557.470000	1875.109375	-57.724449
11861.825000	1557.470000	1874.122070	-63.884274
11861.825000	1557.470000	1873.134766	67.911835
11861.825000	1557.470000	1872.146484	85.935005
11861.825000	1557.470000	1871.159180	-7.330365
11861.825000	1557.470000	1870.170898	-54.600597
11861.825000	1557.470000	1869.182617	-34.135818
11861.825000	1557.470000	1868.194336	-35.437252
11861.825000	1557.470000	1867.205078	26.117533
11861.825000	1557.470000	1866.216797	32.061234
11861.825000	1557.470000	1865.227539	-27.242142
11861.825000	1557.470000	1864.238281	34.282703
11861.825000	1557.470000	1863.249023	47.473637
11861.825000	1557.470000	1862.259766	92.058174
11861.825000	1557.470000	1861.269531	-44.478214
11861.825000	1557.470000	1860.279297	9.765179
11861.825000	1557.470000	1859.290039	44.678566
11861.825000	1557.470000	1858.298828	-62.810413
11861.825000	1557.470000	1857.308594	15.535574
11861.825000	1557.470000	1856.318359	84.202232
11861.825000	1557.470000	1855.327148	-11.174834
11861.825000	1557.470000	1854.335938	83.995987
11861.825000	1557.470000	1853.344727	-42.691582
11861.825000	1557.470000	1852.353516	88.606400
11861.825000	1557.470000	1851.362305	108.984383
11861.825000	1557.470000	1850.370117	30.552567
11861.825000	1557.470000	1849.377930	48.519512
11861.825000	1557.470000	1848.385742	100.200851
11861.825000	1557.470000	1847.393555	82.016701
11861.825000	1557.470000	1846.401367	18.085436
11861.825000	1557.470000	1845.408203	14.361237
11861.825000	1557.470000	1844.415039	44.332943
11861.825000	1557.470000	1843.421875	74.289574
11861.825000	1557.470000	1842.428711	32.046764
11861.825000	1557.470000	1841.435547	-10.184839
11861.825000	1557.470000	1840.441406	-1.896378
11861.825000	1557.470000	1839.448242	71.312767
11861.825000	1557.470000	1838.454102	106.019188
11861.825000	1557.470000	1837.459961	1.283275
11861.825000	1557.470000	1836.464844	76.835548
11861.825000	1557.470000	1835.470703	-13.450172
11861.825000	1557.470000	1834.475586	-50.854286
11861.825000	1557.470000	1833.480469	-40.210163
11861.825000	1557.470000	1832.485352	-24.774179
11861.825000	1557.470000	1831.490234	-45.368633
11861.825000	1557.470000	1830.495117	85.280609
11861.825000	1557.470000	1829.499023	23.852526
11861.825000	1557.470000	1828.502930	48.831894
11861.825000	1557.470000	1827.506836	-36.576237
11861.825000	1557.470000	1826.510742	7.578558
11861.825000	1557.470000	1825.513672	126.058220
11861.825000	1557.470000	1824.517578	-21.690990
11861.825000	1557.470000	1823.520508	91.935394
11861.825000	1557.470000	1822.523438	23.331404
11861.825000	1557.470000	1821.526367	98.540237
11861.825000	1557.470000	1820.529297	-37.152466
11861.825000	1557.470000	1819.531250	193.739075
11861.825000	1557.470000	1818.533203	24.523472
11861.825000	1557.470000	1817.535156	-12.924753
11861.825000	1557.470000	1816.537109	-40.793102
11861.825000	1557.470000	1815.539063	96.517059
11861.825000	1557.470000	1814.540039	27.925308
11861.825000	1557.470000	1813.541992	74.212379
11861.825000	1557.470000	1812.542969	-145.104614
11861.825000	1557.470000	1811.543945	59.050148
11861.825000	1557.470000	1810.543945	11.990972
11861.825000	1557.470000	1809.544922	39.064369
11861.825000	1557.470000	1808.544922	85.239281
11861.825000	1557.470000	1807.544922	100.309105
11861.825000	1557.470000	1806.544922	55.613716
11861.825000	1557.470000	1805.544922	20.478344
11861.825000	1557.470000	1804.544922	28.343212
11861.825000	1557.470000	1803.543945	36.189320
11861.825000	1557.470000	1802.542969	-8.518720
11861.825000	1557.470000	1801.541992	42.278229
11861.825000	1557.470000	1800.541016	112.138077
11861.825000	1557.470000	1799.539063	107.968048
11861.825000	1557.470000	1798.538086	-65.636963
11861.825000	1557.470000	1797.536133	35.171112
11861.825000	1557.470000	1796.534180	143.081116
11861.825000	1557.470000	1795.532227	33.910999
11861.825000	1557.470000	1794.529297	46.370174
11861.825000	1557.470000	1793.527344	51.657204
11861.825000	1557.470000	1792.524414	121.279709
11861.825000	1557.470000	1791.521484	59.790390
11861.825000	1557.470000	1790.518555	48.342178
11861.825000	1557.470000	1789.514648	15.440564
11861.825000	1557.470000	1788.511719	-22.228157
11861.825000	1557.470000	1787.507813	16.299303
11861.825000	1557.470000	1786.503906	-28.533871
11861.825000	1557.470000	1785.500000	31.368134
11861.825000	1557.470000	1784.496094	74.570129
11861.825000	1557.470000	1783.491211	13.040180
11861.825000	1557.470000	1782.486328	-24.694456
11861.825000	1557.470000	1781.481445	6.545054
11861.825000	1557.470000	1780.476563	-5.051461
11861.825000	1557.470000	1779.471680	52.289570
11861.825000	1557.470000	1778.465820	38.272961
11861.825000	1557.470000	1777.460938	48.011700
11861.825000	1557.470000	1776.455078	-63.464615
11861.825000	1557.470000	1775.449219	171.955902
11861.825000	1557.470000	1774.442383	-10.803008
11861.825000	1557.470000	1773.436523	-86.637955
11861.825000	1557.470000	1772.429688	34.618225
11861.825000	1557.470000	1771.422852	-26.992565
11861.825000	1557.470000	1770.416016	-22.138617
11861.825000	1557.470000	1769.409180	61.007641
11861.825000	1557.470000	1768.402344	-71.812401
11861.825000	1557.470000	1767.394531	132.255081
11861.825000	1557.470000	1766.386719	-38.517658
11861.825000	1557.470000	1765.378906	82.429367
11861.825000	1557.470000	1764.371094	32.606613
11861.825000	1557.470000	1763.362305	53.894226
11861.825000	1557.470000	1762.354492	-0.684297
11861.825000	1557.470000	1761.345703	63.213158
11861.825000	1557.470000	1760.336914	25.195379
11861.825000	1557.470000	1759.328125	89.023087
11861.825000	1557.470000	1758.318359	-3.495430
11861.825000	1557.470000	1757.308594	-24.966881
11861.825000	1557.470000	1756.299805	17.467670
11861.825000	1557.470000	1755.290039	59.864250
11861.825000	1557.470000	1754.279297	26.498188
11861.825000	1557.470000	1753.269531	4.955851
11861.825000	1557.470000	1752.258789	-4.772752
11861.825000	1557.470000	1751.249023	32.784084
11861.825000	1557.470000	1750.238281	-2.997224
11861.825000	1557.470000	1749.226563	-22.238543
11861.825000	1557.470000	1748.215820	10.509982
11861.825000	1557.470000	1747.204102	-11.130457
11861.825000	1557.470000	1746.193359	59.367226
11861.825000	1557.470000	1745.181641	32.960339
11861.825000	1557.470000	1744.168945	32.521904
11861.825000	1557.470000	1743.157227	8.450959
11861.825000	1557.470000	1742.144531	29.225464
11861.825000	1557.470000	1741.132813	106.626373
11861.825000	1557.470000	1740.120117	117.893539
11861.825000	1557.470000	1739.106445	-0.645156
11861.825000	1557.470000	1738.093750	62.499615
11861.825000	1557.470000	1737.080078	5.303207
11861.825000	1557.470000	1736.067383	-11.798682
11861.825000	1557.470000	1735.053711	63.039104
11861.825000	1557.470000	1734.040039	114.254562
11861.825000	1557.470000	1733.025391	57.009869
11861.825000	1557.470000	1732.011719	9.195479
11861.825000	1557.470000	1730.997070	65.042160
11861.825000	1557.470000	1729.982422	19.558552
11861.825000	1557.470000	1728.967773	-21.217173
11861.825000	1557.470000	1727.952148	76.926414
11861.825000	1557.470000	1726.937500	-39.218666
11861.825000	1557.470000	1725.921875	-58.836365
11861.825000	1557.470000	1724.906250	-10.219443
11861.825000	1557.470000	1723.890625	5.419557
11861.825000	1557.470000	1722.875000	138.654480
11861.825000	1557.470000	1721.858398	-92.738144
11861.825000	1557.470000	1720.841797	-103.018532
11861.825000	1557.470000	1719.825195	-5.164106
11861.825000	1557.470000	1718.808594	8.011792
11861.825000	1557.470000	1717.791992	42.315685
11861.825000	1557.470000	1716.774414	-111.392227
11861.825000	1557.470000	1715.756836	19.202412
11861.825000	1557.470000	1714.739258	-28.781616
11861.825000	1557.470000	1713.721680	68.833817
11861.825000	1557.470000	1712.704102	63.085224
11861.825000	1557.470000	1711.685547	-62.402111
11861.825000	1557.470000	1710.667969	-44.688370
11861.825000	1557.470000	1709.649414	80.940956
11861.825000	1557.470000	1708.630859	-86.760445
11861.825000	1557.470000	1707.611328	64.593887
11861.825000	1557.470000	1706.592773	-30.372252
11861.825000	1557.470000	1705.573242	50.536243
11861.825000	1557.470000	1704.553711	44.657120
11861.825000	1557.470000	1703.534180	-36.240402
11861.825000	1557.470000	1702.513672	-14.015043
11861.825000	1557.470000	1701.494141	-62.101196
11861.825000	1557.470000	1700.473633	70.186836
11861.825000	1557.470000	1699.453125	-10.720579
11861.825000	1557.470000	1698.432617	-11.997573
11861.825000	1557.470000	1697.412109	75.675133
11861.825000	1557.470000	1696.390625	-26.302692
11861.825000	1557.470000	1695.369141	21.521099
11861.825000	1557.470000	1694.347656	-33.640888
11861.825000	1557.470000	1693.326172	35.190548
11861.825000	1557.470000	1692.304688	-15.304217
11861.825000	1557.470000	1691.282227	-91.520149
11861.825000	1557.470000	1690.260742	-104.591522
11861.825000	1557.470000	1689.238281	-89.623672
11861.825000	1557.470000	1688.214844	-58.318558
11861.825000	1557.470000	1687.192383	-8.342608
11861.825000	1557.470000	1686.168945	-79.886421
11861.825000	1557.470000	1685.146484	-36.959625
11861.825000	1557.470000	1684.123047	-71.131035
11861.825000	1557.470000	1683.099609	-11.907060
11861.825000	1557.470000	1682.075195	44.944450
11861.825000	1557.470000	1681.051758	22.409082
11861.825000	1557.470000	1680.027344	-16.467560
11861.825000	1557.470000	1679.002930	21.650702
11861.825000	1557.470000	1677.978516	-105.874329
11861.825000	1557.470000	1676.953125	34.836178
11861.825000	1557.470000	1675.928711	26.253519
11861.825000	1557.470000	1674.903320	-26.634407
11861.825000	1557.470000	1673.877930	116.277191
11861.825000	1557.470000	1672.852539	0.450704
11861.825000	1557.470000	1671.826172	-24.477247
11861.825000	1557.470000	1670.800781	102.014282
11861.825000	1557.470000	1669.774414	44.449734
11861.825000	1557.470000	1668.748047	105.655876
11861.825000	1557.470000	1667.721680	78.360001
11861.825000	1557.470000	1666.694336	16.146698
11861.825000	1557.470000	1665.667969	2.823857
11861.825000	1557.470000	1664.640625	-15.159338
11861.825000	1557.470000	1663.613281	-30.817387
11861.825000	1557.470000	1662.585938	-4.611706
11861.825000	1557.470000	1661.557617	33.200218
11861.825000	1557.470000	1660.530273	-5.732092
11861.825000	1557.470000	1659.501953	92.488487
11861.825000	1557.470000	1658.473633	-25.476976
11861.825000	1557.470000	1657.444336	130.783463
11861.825000	1557.470000	1656.416016	124.355637
11861.825000	1557.470000	1655.386719	148.117111
11861.825000	1557.470000	1654.358398	-27.851627
11861.825000	1557.470000	1653.328125	33.064552
11861.825000	1557.470000	1652.298828	61.454670
11861.825000	1557.470000	1651.269531	182.666672
11861.825000	1557.470000	1650.239258	4.478695
11861.825000	1557.470000	1649.208984	127.961761
11861.825000	1557.470000	1648.178711	10.153502
11861.825000	1557.470000	1647.148438	15.301982
11861.825000	1557.470000	1646.117188	106.232918
11861.825000	1557.470000	1645.086914	48.760036
11861.825000	1557.470000	1644.055664	14.480794
11861.825000	1557.470000	1643.024414	123.887878
11861.825000	1557.470000	1641.992188	91.914421
11861.825000	1557.470000	1640.960938	159.562149
11861.825000	1557.470000	1639.928711	65.056946
11861.825000	1557.470000	1638.896484	128.044800
11861.825000	1557.470000	1637.864258	133.128052
11861.825000	1557.470000	1636.832031	200.703949
11861.825000	1557.470000	1635.798828	73.854546
11861.825000	1557.470000	1634.766602	-15.922828
11861.825000	1557.470000	1633.733398	100.215866
11861.825000	1557.470000	1632.699219	54.404694
11861.825000	1557.470000	1631.666016	110.360710
11861.825000	1557.470000	1630.632813	140.863724
11861.825000	1557.470000	1629.598633	132.055878
11861.825000	1557.470000	1628.564453	155.607117
11861.825000	1557.470000	1627.530273	100.588501
11861.825000	1557.470000	1626.495117	94.103104
11861.825000	1557.470000	1625.460938	149.987106
11861.825000	1557.470000	1624.425781	171.209091
11861.825000	1557.470000	1623.390625	137.012222
11861.825000	1557.470000	1622.355469	172.082794
11861.825000	1557.470000	1621.319336	202.522934
11861.825000	1557.470000	1620.284180	325.256653
11861.825000	1557.470000	1619.248047	124.957191
11861.825000	1557.470000	1618.211914	309.939453
11861.825000	1557.470000	1617.174805	225.031616
11861.825000	1557.470000	1616.138672	262.365234
11861.825000	1557.470000	1615.101563	244.359634
11861.825000	1557.470000	1614.065430	318.559845
11861.825000	1557.470000	1613.027344	247.556473
11861.825000	1557.470000	1611.990234	252.616882
11861.825000	1557.470000	1610.953125	294.535614
11861.825000	1557.470000	1609.915039	262.744873
11861.825000	1557.470000	1608.876953	465.831573
11861.825000	1557.470000	1607.838867	470.864777
11861.825000	1557.470000	1606.800781	305.580109
11861.825000	1557.470000	1605.761719	379.688202
11861.825000	1557.470000	1604.723633	306.529358
11861.825000	1557.470000	1603.684570	304.712006
11861.825000	1557.470000	1602.644531	399.493774
11861.825000	1557.470000	1601.605469	459.757904
11861.825000	1557.470000	1600.566406	262.523163
11861.825000	1557.470000	1599.526367	295.221313
11861.825000	1557.470000	1598.486328	233.695007
11861.825000	1557.470000	1597.446289	245.724289
11861.825000	1557.470000	1596.405273	207.217575
11861.825000	1557.470000	1595.365234	354.771393
11861.825000	1557.470000	1594.324219	249.685226
11861.825000	1557.470000	1593.283203	236.481842
11861.825000	1557.470000	1592.242188	165.910034
11861.825000	1557.470000	1591.200195	187.169250
11861.825000	1557.470000	1590.159180	346.102020
11861.825000	1557.470000	1589.117188	287.048492
11861.825000	1557.470000	1588.075195	198.211975
11861.825000	1557.470000	1587.032227	88.780800
11861.825000	1557.470000	1585.990234	265.990906
11861.825000	1557.470000	1584.947266	335.406189
11861.825000	1557.470000	1583.904297	253.548737
11861.825000	1557.470000	1582.861328	350.458862
11861.825000	1557.470000	1581.818359	261.782288
11861.825000	1557.470000	1580.775391	237.284882
11861.825000	1557.470000	1579.731445	315.856659
