#X		#Y		#Wave		#Intensity
11507.539362	1469.330000	1999.980469	-10.895814
11507.539362	1469.330000	1999.016602	44.656307
11507.539362	1469.330000	1998.052734	39.545204
11507.539362	1469.330000	1997.087891	29.395060
11507.539362	1469.330000	1996.123047	-30.387577
11507.539362	1469.330000	1995.158203	199.604294
11507.539362	1469.330000	1994.193359	100.024200
11507.539362	1469.330000	1993.228516	12.785921
11507.539362	1469.330000	1992.262695	-84.397591
11507.539362	1469.330000	1991.297852	-67.750755
11507.539362	1469.330000	1990.332031	99.789268
11507.539362	1469.330000	1989.366211	74.190369
11507.539362	1469.330000	1988.399414	-35.580990
11507.539362	1469.330000	1987.433594	176.182816
11507.539362	1469.330000	1986.466797	150.389664
11507.539362	1469.330000	1985.500977	15.749321
11507.539362	1469.330000	1984.534180	56.622955
11507.539362	1469.330000	1983.567383	104.839005
11507.539362	1469.330000	1982.599609	118.382896
11507.539362	1469.330000	1981.632813	30.565815
11507.539362	1469.330000	1980.665039	-84.445023
11507.539362	1469.330000	1979.697266	15.413310
11507.539362	1469.330000	1978.729492	-57.672993
11507.539362	1469.330000	1977.761719	66.736145
11507.539362	1469.330000	1976.792969	178.709152
11507.539362	1469.330000	1975.825195	-8.035610
11507.539362	1469.330000	1974.856445	158.108231
11507.539362	1469.330000	1973.887695	79.903908
11507.539362	1469.330000	1972.918945	-10.645671
11507.539362	1469.330000	1971.949219	64.034416
11507.539362	1469.330000	1970.980469	-31.486628
11507.539362	1469.330000	1970.010742	-70.308044
11507.539362	1469.330000	1969.041016	-74.643105
11507.539362	1469.330000	1968.071289	44.208721
11507.539362	1469.330000	1967.101563	42.251637
11507.539362	1469.330000	1966.130859	69.824341
11507.539362	1469.330000	1965.161133	-195.738556
11507.539362	1469.330000	1964.190430	28.812243
11507.539362	1469.330000	1963.219727	-2.804843
11507.539362	1469.330000	1962.249023	-4.897750
11507.539362	1469.330000	1961.277344	47.129288
11507.539362	1469.330000	1960.306641	123.720863
11507.539362	1469.330000	1959.334961	281.447205
11507.539362	1469.330000	1958.363281	-97.142220
11507.539362	1469.330000	1957.391602	-89.497078
11507.539362	1469.330000	1956.419922	-13.026032
11507.539362	1469.330000	1955.447266	31.435743
11507.539362	1469.330000	1954.474609	152.059296
11507.539362	1469.330000	1953.501953	157.117538
11507.539362	1469.330000	1952.529297	144.958038
11507.539362	1469.330000	1951.556641	27.153465
11507.539362	1469.330000	1950.583984	44.464939
11507.539362	1469.330000	1949.610352	47.020924
11507.539362	1469.330000	1948.636719	137.949951
11507.539362	1469.330000	1947.663086	140.460831
11507.539362	1469.330000	1946.689453	138.050430
11507.539362	1469.330000	1945.715820	155.261002
11507.539362	1469.330000	1944.741211	-40.992519
11507.539362	1469.330000	1943.767578	57.171654
11507.539362	1469.330000	1942.792969	59.641678
11507.539362	1469.330000	1941.818359	96.431274
11507.539362	1469.330000	1940.842773	-11.444632
11507.539362	1469.330000	1939.868164	-111.932884
11507.539362	1469.330000	1938.892578	89.039101
11507.539362	1469.330000	1937.916992	120.866364
11507.539362	1469.330000	1936.941406	196.772141
11507.539362	1469.330000	1935.965820	39.962547
11507.539362	1469.330000	1934.990234	-55.571625
11507.539362	1469.330000	1934.013672	12.965134
11507.539362	1469.330000	1933.037109	-31.130842
11507.539362	1469.330000	1932.060547	113.241524
11507.539362	1469.330000	1931.083984	34.880558
11507.539362	1469.330000	1930.107422	59.301857
11507.539362	1469.330000	1929.129883	127.741280
11507.539362	1469.330000	1928.153320	105.666893
11507.539362	1469.330000	1927.175781	166.735001
11507.539362	1469.330000	1926.198242	144.659790
11507.539362	1469.330000	1925.219727	-2.066582
11507.539362	1469.330000	1924.242188	0.336870
11507.539362	1469.330000	1923.263672	12.512725
11507.539362	1469.330000	1922.285156	149.272766
11507.539362	1469.330000	1921.306641	-63.285992
11507.539362	1469.330000	1920.328125	63.673164
11507.539362	1469.330000	1919.349609	-56.007668
11507.539362	1469.330000	1918.370117	-2.326660
11507.539362	1469.330000	1917.391602	100.151337
11507.539362	1469.330000	1916.412109	2.499019
11507.539362	1469.330000	1915.431641	58.587242
11507.539362	1469.330000	1914.452148	21.967302
11507.539362	1469.330000	1913.472656	60.967636
11507.539362	1469.330000	1912.492188	58.504082
11507.539362	1469.330000	1911.511719	121.868713
11507.539362	1469.330000	1910.531250	21.905455
11507.539362	1469.330000	1909.550781	65.766327
11507.539362	1469.330000	1908.569336	-7.339395
11507.539362	1469.330000	1907.588867	97.421654
11507.539362	1469.330000	1906.607422	-60.899334
11507.539362	1469.330000	1905.625977	129.071640
11507.539362	1469.330000	1904.644531	-41.359642
11507.539362	1469.330000	1903.662109	-60.799862
11507.539362	1469.330000	1902.680664	112.043716
11507.539362	1469.330000	1901.698242	97.459587
11507.539362	1469.330000	1900.715820	51.259182
11507.539362	1469.330000	1899.733398	95.081223
11507.539362	1469.330000	1898.750000	-138.354324
11507.539362	1469.330000	1897.767578	80.567444
11507.539362	1469.330000	1896.784180	24.701427
11507.539362	1469.330000	1895.800781	168.172455
11507.539362	1469.330000	1894.817383	78.299873
11507.539362	1469.330000	1893.833984	-72.276176
11507.539362	1469.330000	1892.850586	32.281212
11507.539362	1469.330000	1891.866211	-4.065830
11507.539362	1469.330000	1890.881836	73.738121
11507.539362	1469.330000	1889.897461	-28.145357
11507.539362	1469.330000	1888.913086	-59.588852
11507.539362	1469.330000	1887.927734	100.714493
11507.539362	1469.330000	1886.943359	52.283627
11507.539362	1469.330000	1885.958008	180.978394
11507.539362	1469.330000	1884.972656	69.494286
11507.539362	1469.330000	1883.987305	72.040184
11507.539362	1469.330000	1883.001953	-78.166702
11507.539362	1469.330000	1882.015625	-5.281916
11507.539362	1469.330000	1881.029297	74.852356
11507.539362	1469.330000	1880.042969	-55.869942
11507.539362	1469.330000	1879.056641	-16.935740
11507.539362	1469.330000	1878.070313	-24.037531
11507.539362	1469.330000	1877.083984	10.041360
11507.539362	1469.330000	1876.096680	-55.172001
11507.539362	1469.330000	1875.109375	41.856110
11507.539362	1469.330000	1874.122070	109.804268
11507.539362	1469.330000	1873.134766	51.882290
11507.539362	1469.330000	1872.146484	71.416069
11507.539362	1469.330000	1871.159180	117.559044
11507.539362	1469.330000	1870.170898	158.849365
11507.539362	1469.330000	1869.182617	52.608799
11507.539362	1469.330000	1868.194336	23.783453
11507.539362	1469.330000	1867.205078	113.426758
11507.539362	1469.330000	1866.216797	-31.408489
11507.539362	1469.330000	1865.227539	7.469687
11507.539362	1469.330000	1864.238281	-79.300598
11507.539362	1469.330000	1863.249023	-9.019823
11507.539362	1469.330000	1862.259766	-54.692081
11507.539362	1469.330000	1861.269531	-30.318644
11507.539362	1469.330000	1860.279297	124.418274
11507.539362	1469.330000	1859.290039	-37.110844
11507.539362	1469.330000	1858.298828	21.036409
11507.539362	1469.330000	1857.308594	96.054916
11507.539362	1469.330000	1856.318359	-46.075146
11507.539362	1469.330000	1855.327148	-21.723709
11507.539362	1469.330000	1854.335938	171.427948
11507.539362	1469.330000	1853.344727	34.186745
11507.539362	1469.330000	1852.353516	-49.968544
11507.539362	1469.330000	1851.362305	-122.041069
11507.539362	1469.330000	1850.370117	-3.718137
11507.539362	1469.330000	1849.377930	32.643654
11507.539362	1469.330000	1848.385742	-44.223988
11507.539362	1469.330000	1847.393555	112.549805
11507.539362	1469.330000	1846.401367	28.470163
11507.539362	1469.330000	1845.408203	86.461098
11507.539362	1469.330000	1844.415039	89.066879
11507.539362	1469.330000	1843.421875	67.603683
11507.539362	1469.330000	1842.428711	-35.661144
11507.539362	1469.330000	1841.435547	39.130054
11507.539362	1469.330000	1840.441406	34.517002
11507.539362	1469.330000	1839.448242	-78.309937
11507.539362	1469.330000	1838.454102	-75.692017
11507.539362	1469.330000	1837.459961	-65.866676
11507.539362	1469.330000	1836.464844	-89.697556
11507.539362	1469.330000	1835.470703	4.222532
11507.539362	1469.330000	1834.475586	33.234936
11507.539362	1469.330000	1833.480469	-14.633633
11507.539362	1469.330000	1832.485352	-31.268187
11507.539362	1469.330000	1831.490234	33.737766
11507.539362	1469.330000	1830.495117	151.529495
11507.539362	1469.330000	1829.499023	204.464050
11507.539362	1469.330000	1828.502930	31.793242
11507.539362	1469.330000	1827.506836	51.128170
11507.539362	1469.330000	1826.510742	-35.100754
11507.539362	1469.330000	1825.513672	-34.961300
11507.539362	1469.330000	1824.517578	113.847351
11507.539362	1469.330000	1823.520508	46.814899
11507.539362	1469.330000	1822.523438	-24.993818
11507.539362	1469.330000	1821.526367	126.103088
11507.539362	1469.330000	1820.529297	126.177147
11507.539362	1469.330000	1819.531250	-43.854084
11507.539362	1469.330000	1818.533203	181.389679
11507.539362	1469.330000	1817.535156	32.949722
11507.539362	1469.330000	1816.537109	253.288193
11507.539362	1469.330000	1815.539063	97.691475
11507.539362	1469.330000	1814.540039	-96.151917
11507.539362	1469.330000	1813.541992	54.662018
11507.539362	1469.330000	1812.542969	-62.557343
11507.539362	1469.330000	1811.543945	45.115288
11507.539362	1469.330000	1810.543945	-86.428497
11507.539362	1469.330000	1809.544922	92.923889
11507.539362	1469.330000	1808.544922	178.957336
11507.539362	1469.330000	1807.544922	23.528811
11507.539362	1469.330000	1806.544922	174.047272
11507.539362	1469.330000	1805.544922	47.328396
11507.539362	1469.330000	1804.544922	-2.907802
11507.539362	1469.330000	1803.543945	73.451889
11507.539362	1469.330000	1802.542969	273.948578
11507.539362	1469.330000	1801.541992	61.306179
11507.539362	1469.330000	1800.541016	151.897018
11507.539362	1469.330000	1799.539063	-27.255058
11507.539362	1469.330000	1798.538086	58.520874
11507.539362	1469.330000	1797.536133	27.346905
11507.539362	1469.330000	1796.534180	-6.213815
11507.539362	1469.330000	1795.532227	15.076795
11507.539362	1469.330000	1794.529297	162.719086
11507.539362	1469.330000	1793.527344	86.199532
11507.539362	1469.330000	1792.524414	21.611319
11507.539362	1469.330000	1791.521484	130.997650
11507.539362	1469.330000	1790.518555	123.579514
11507.539362	1469.330000	1789.514648	37.536903
11507.539362	1469.330000	1788.511719	87.271484
11507.539362	1469.330000	1787.507813	20.288424
11507.539362	1469.330000	1786.503906	-41.922714
11507.539362	1469.330000	1785.500000	-8.910933
11507.539362	1469.330000	1784.496094	-28.285292
11507.539362	1469.330000	1783.491211	-16.736483
11507.539362	1469.330000	1782.486328	59.024937
11507.539362	1469.330000	1781.481445	51.491962
11507.539362	1469.330000	1780.476563	32.055542
11507.539362	1469.330000	1779.471680	95.827827
11507.539362	1469.330000	1778.465820	33.565815
11507.539362	1469.330000	1777.460938	-78.599472
11507.539362	1469.330000	1776.455078	51.642014
11507.539362	1469.330000	1775.449219	219.830322
11507.539362	1469.330000	1774.442383	67.257088
11507.539362	1469.330000	1773.436523	-101.898209
11507.539362	1469.330000	1772.429688	-21.686947
11507.539362	1469.330000	1771.422852	39.484219
11507.539362	1469.330000	1770.416016	-10.944901
11507.539362	1469.330000	1769.409180	43.045586
11507.539362	1469.330000	1768.402344	-99.935562
11507.539362	1469.330000	1767.394531	29.924662
11507.539362	1469.330000	1766.386719	138.371078
11507.539362	1469.330000	1765.378906	128.190689
11507.539362	1469.330000	1764.371094	77.690994
11507.539362	1469.330000	1763.362305	17.707409
11507.539362	1469.330000	1762.354492	116.518944
11507.539362	1469.330000	1761.345703	129.968918
11507.539362	1469.330000	1760.336914	-43.763191
11507.539362	1469.330000	1759.328125	83.367958
11507.539362	1469.330000	1758.318359	65.970161
11507.539362	1469.330000	1757.308594	-15.368802
11507.539362	1469.330000	1756.299805	-13.839892
11507.539362	1469.330000	1755.290039	-45.468651
11507.539362	1469.330000	1754.279297	38.845367
11507.539362	1469.330000	1753.269531	78.156929
11507.539362	1469.330000	1752.258789	-76.538132
11507.539362	1469.330000	1751.249023	43.151451
11507.539362	1469.330000	1750.238281	-0.382550
11507.539362	1469.330000	1749.226563	-65.199821
11507.539362	1469.330000	1748.215820	49.629589
11507.539362	1469.330000	1747.204102	107.675095
11507.539362	1469.330000	1746.193359	73.531761
11507.539362	1469.330000	1745.181641	-24.403908
11507.539362	1469.330000	1744.168945	87.882141
11507.539362	1469.330000	1743.157227	108.011475
11507.539362	1469.330000	1742.144531	66.724724
11507.539362	1469.330000	1741.132813	-2.890656
11507.539362	1469.330000	1740.120117	-13.500833
11507.539362	1469.330000	1739.106445	53.737862
11507.539362	1469.330000	1738.093750	104.417892
11507.539362	1469.330000	1737.080078	55.989201
11507.539362	1469.330000	1736.067383	35.859768
11507.539362	1469.330000	1735.053711	62.871056
11507.539362	1469.330000	1734.040039	151.143082
11507.539362	1469.330000	1733.025391	-109.466225
11507.539362	1469.330000	1732.011719	-58.940323
11507.539362	1469.330000	1730.997070	95.207634
11507.539362	1469.330000	1729.982422	-224.193771
11507.539362	1469.330000	1728.967773	14.669470
11507.539362	1469.330000	1727.952148	39.142975
11507.539362	1469.330000	1726.937500	195.425140
11507.539362	1469.330000	1725.921875	0.912309
11507.539362	1469.330000	1724.906250	-7.635168
11507.539362	1469.330000	1723.890625	-16.199682
11507.539362	1469.330000	1722.875000	43.438038
11507.539362	1469.330000	1721.858398	53.638187
11507.539362	1469.330000	1720.841797	-49.059486
11507.539362	1469.330000	1719.825195	-55.344883
11507.539362	1469.330000	1718.808594	-12.285830
11507.539362	1469.330000	1717.791992	-126.725044
11507.539362	1469.330000	1716.774414	-22.619789
11507.539362	1469.330000	1715.756836	-104.167519
11507.539362	1469.330000	1714.739258	-30.682613
11507.539362	1469.330000	1713.721680	47.450214
11507.539362	1469.330000	1712.704102	57.443436
11507.539362	1469.330000	1711.685547	-181.422974
11507.539362	1469.330000	1710.667969	-39.997822
11507.539362	1469.330000	1709.649414	28.606390
11507.539362	1469.330000	1708.630859	162.855453
11507.539362	1469.330000	1707.611328	31.968718
11507.539362	1469.330000	1706.592773	-2.730576
11507.539362	1469.330000	1705.573242	-35.095295
11507.539362	1469.330000	1704.553711	169.309662
11507.539362	1469.330000	1703.534180	29.066441
11507.539362	1469.330000	1702.513672	151.317657
11507.539362	1469.330000	1701.494141	67.323761
11507.539362	1469.330000	1700.473633	6.764922
11507.539362	1469.330000	1699.453125	-102.973946
11507.539362	1469.330000	1698.432617	147.919785
11507.539362	1469.330000	1697.412109	-43.783752
11507.539362	1469.330000	1696.390625	-45.837517
11507.539362	1469.330000	1695.369141	181.437439
11507.539362	1469.330000	1694.347656	85.710197
11507.539362	1469.330000	1693.326172	76.558037
11507.539362	1469.330000	1692.304688	95.457153
11507.539362	1469.330000	1691.282227	-2.595951
11507.539362	1469.330000	1690.260742	32.640022
11507.539362	1469.330000	1689.238281	81.866898
11507.539362	1469.330000	1688.214844	4.848437
11507.539362	1469.330000	1687.192383	114.779182
11507.539362	1469.330000	1686.168945	-34.675278
11507.539362	1469.330000	1685.146484	-158.393082
11507.539362	1469.330000	1684.123047	-32.204300
11507.539362	1469.330000	1683.099609	133.611755
11507.539362	1469.330000	1682.075195	0.535831
11507.539362	1469.330000	1681.051758	117.233376
11507.539362	1469.330000	1680.027344	42.516296
11507.539362	1469.330000	1679.002930	-6.525504
11507.539362	1469.330000	1677.978516	119.382561
11507.539362	1469.330000	1676.953125	93.629883
11507.539362	1469.330000	1675.928711	2.585672
11507.539362	1469.330000	1674.903320	126.035347
11507.539362	1469.330000	1673.877930	174.834503
11507.539362	1469.330000	1672.852539	76.784630
11507.539362	1469.330000	1671.826172	-42.216183
11507.539362	1469.330000	1670.800781	20.516870
11507.539362	1469.330000	1669.774414	48.271530
11507.539362	1469.330000	1668.748047	52.714512
11507.539362	1469.330000	1667.721680	257.360199
11507.539362	1469.330000	1666.694336	52.235527
11507.539362	1469.330000	1665.667969	40.340401
11507.539362	1469.330000	1664.640625	42.392132
11507.539362	1469.330000	1663.613281	114.219131
11507.539362	1469.330000	1662.585938	11.562832
11507.539362	1469.330000	1661.557617	225.188446
11507.539362	1469.330000	1660.530273	106.247810
11507.539362	1469.330000	1659.501953	-3.365571
11507.539362	1469.330000	1658.473633	233.340363
11507.539362	1469.330000	1657.444336	81.889565
11507.539362	1469.330000	1656.416016	123.313385
11507.539362	1469.330000	1655.386719	171.673218
11507.539362	1469.330000	1654.358398	8.676690
11507.539362	1469.330000	1653.328125	112.736511
11507.539362	1469.330000	1652.298828	156.391129
11507.539362	1469.330000	1651.269531	65.402313
11507.539362	1469.330000	1650.239258	111.343758
11507.539362	1469.330000	1649.208984	45.893200
11507.539362	1469.330000	1648.178711	103.396088
11507.539362	1469.330000	1647.148438	332.484009
11507.539362	1469.330000	1646.117188	141.782928
11507.539362	1469.330000	1645.086914	129.654968
11507.539362	1469.330000	1644.055664	149.967453
11507.539362	1469.330000	1643.024414	91.471939
11507.539362	1469.330000	1641.992188	188.219116
11507.539362	1469.330000	1640.960938	324.303131
11507.539362	1469.330000	1639.928711	286.620605
11507.539362	1469.330000	1638.896484	251.259949
11507.539362	1469.330000	1637.864258	255.261017
11507.539362	1469.330000	1636.832031	361.098175
11507.539362	1469.330000	1635.798828	219.260605
11507.539362	1469.330000	1634.766602	119.122780
11507.539362	1469.330000	1633.733398	215.644241
11507.539362	1469.330000	1632.699219	212.664108
11507.539362	1469.330000	1631.666016	341.489502
11507.539362	1469.330000	1630.632813	245.997330
11507.539362	1469.330000	1629.598633	254.550720
11507.539362	1469.330000	1628.564453	189.140091
11507.539362	1469.330000	1627.530273	421.819916
11507.539362	1469.330000	1626.495117	203.915756
11507.539362	1469.330000	1625.460938	272.500427
11507.539362	1469.330000	1624.425781	320.266815
11507.539362	1469.330000	1623.390625	342.612030
11507.539362	1469.330000	1622.355469	355.711182
11507.539362	1469.330000	1621.319336	331.869843
11507.539362	1469.330000	1620.284180	497.251648
11507.539362	1469.330000	1619.248047	399.559692
11507.539362	1469.330000	1618.211914	426.457764
11507.539362	1469.330000	1617.174805	294.215271
11507.539362	1469.330000	1616.138672	325.728821
11507.539362	1469.330000	1615.101563	366.445129
11507.539362	1469.330000	1614.065430	326.479553
11507.539362	1469.330000	1613.027344	371.780426
11507.539362	1469.330000	1611.990234	320.302338
11507.539362	1469.330000	1610.953125	314.911377
11507.539362	1469.330000	1609.915039	369.396027
11507.539362	1469.330000	1608.876953	467.607086
11507.539362	1469.330000	1607.838867	632.540405
11507.539362	1469.330000	1606.800781	401.524933
11507.539362	1469.330000	1605.761719	426.029297
11507.539362	1469.330000	1604.723633	498.844147
11507.539362	1469.330000	1603.684570	590.030029
11507.539362	1469.330000	1602.644531	515.588135
11507.539362	1469.330000	1601.605469	344.604614
11507.539362	1469.330000	1600.566406	428.874237
11507.539362	1469.330000	1599.526367	549.884705
11507.539362	1469.330000	1598.486328	542.159180
11507.539362	1469.330000	1597.446289	419.558258
11507.539362	1469.330000	1596.405273	664.550171
11507.539362	1469.330000	1595.365234	525.902100
11507.539362	1469.330000	1594.324219	619.230225
11507.539362	1469.330000	1593.283203	595.439087
11507.539362	1469.330000	1592.242188	502.800385
11507.539362	1469.330000	1591.200195	469.865936
11507.539362	1469.330000	1590.159180	524.142517
11507.539362	1469.330000	1589.117188	576.104797
11507.539362	1469.330000	1588.075195	435.391693
11507.539362	1469.330000	1587.032227	413.978241
11507.539362	1469.330000	1585.990234	532.435669
11507.539362	1469.330000	1584.947266	582.082031
11507.539362	1469.330000	1583.904297	333.783600
11507.539362	1469.330000	1582.861328	653.840088
11507.539362	1469.330000	1581.818359	456.037811
11507.539362	1469.330000	1580.775391	491.944489
