#X		#Y		#Wave		#Intensity
12307.219149	192.475000	1999.980469	-12.107440
12307.219149	192.475000	1999.016602	13.187359
12307.219149	192.475000	1998.052734	-42.596943
12307.219149	192.475000	1997.087891	-24.133865
12307.219149	192.475000	1996.123047	-87.556763
12307.219149	192.475000	1995.158203	37.197277
12307.219149	192.475000	1994.193359	72.632484
12307.219149	192.475000	1993.228516	65.849731
12307.219149	192.475000	1992.262695	160.477341
12307.219149	192.475000	1991.297852	29.707355
12307.219149	192.475000	1990.332031	111.732536
12307.219149	192.475000	1989.366211	161.463852
12307.219149	192.475000	1988.399414	-145.169220
12307.219149	192.475000	1987.433594	28.086422
12307.219149	192.475000	1986.466797	-13.965117
12307.219149	192.475000	1985.500977	-70.923027
12307.219149	192.475000	1984.534180	-6.803995
12307.219149	192.475000	1983.567383	34.966248
12307.219149	192.475000	1982.599609	229.863220
12307.219149	192.475000	1981.632813	16.933662
12307.219149	192.475000	1980.665039	73.277245
12307.219149	192.475000	1979.697266	-53.239674
12307.219149	192.475000	1978.729492	249.900879
12307.219149	192.475000	1977.761719	83.762726
12307.219149	192.475000	1976.792969	-28.068014
12307.219149	192.475000	1975.825195	18.035028
12307.219149	192.475000	1974.856445	91.206543
12307.219149	192.475000	1973.887695	36.005371
12307.219149	192.475000	1972.918945	15.302703
12307.219149	192.475000	1971.949219	137.595276
12307.219149	192.475000	1970.980469	-58.289051
12307.219149	192.475000	1970.010742	-17.481018
12307.219149	192.475000	1969.041016	94.744278
12307.219149	192.475000	1968.071289	83.665024
12307.219149	192.475000	1967.101563	109.504662
12307.219149	192.475000	1966.130859	196.880493
12307.219149	192.475000	1965.161133	-100.044395
12307.219149	192.475000	1964.190430	-71.841965
12307.219149	192.475000	1963.219727	136.045715
12307.219149	192.475000	1962.249023	-30.345640
12307.219149	192.475000	1961.277344	-83.495804
12307.219149	192.475000	1960.306641	-57.916309
12307.219149	192.475000	1959.334961	4.527339
12307.219149	192.475000	1958.363281	81.677223
12307.219149	192.475000	1957.391602	124.339386
12307.219149	192.475000	1956.419922	132.533707
12307.219149	192.475000	1955.447266	226.744827
12307.219149	192.475000	1954.474609	143.923203
12307.219149	192.475000	1953.501953	58.652069
12307.219149	192.475000	1952.529297	-63.465836
12307.219149	192.475000	1951.556641	-57.816090
12307.219149	192.475000	1950.583984	-3.065568
12307.219149	192.475000	1949.610352	36.911652
12307.219149	192.475000	1948.636719	-45.905743
12307.219149	192.475000	1947.663086	-99.251122
12307.219149	192.475000	1946.689453	11.846198
12307.219149	192.475000	1945.715820	59.087357
12307.219149	192.475000	1944.741211	52.321663
12307.219149	192.475000	1943.767578	-123.706413
12307.219149	192.475000	1942.792969	109.882416
12307.219149	192.475000	1941.818359	66.293289
12307.219149	192.475000	1940.842773	101.160507
12307.219149	192.475000	1939.868164	33.057610
12307.219149	192.475000	1938.892578	-93.844322
12307.219149	192.475000	1937.916992	134.570908
12307.219149	192.475000	1936.941406	130.167252
12307.219149	192.475000	1935.965820	-18.749981
12307.219149	192.475000	1934.990234	8.697766
12307.219149	192.475000	1934.013672	85.096695
12307.219149	192.475000	1933.037109	-17.236904
12307.219149	192.475000	1932.060547	232.896729
12307.219149	192.475000	1931.083984	157.481491
12307.219149	192.475000	1930.107422	23.373331
12307.219149	192.475000	1929.129883	-47.090706
12307.219149	192.475000	1928.153320	48.772125
12307.219149	192.475000	1927.175781	78.575813
12307.219149	192.475000	1926.198242	-4.091032
12307.219149	192.475000	1925.219727	-52.509632
12307.219149	192.475000	1924.242188	-20.265871
12307.219149	192.475000	1923.263672	-24.685316
12307.219149	192.475000	1922.285156	44.181896
12307.219149	192.475000	1921.306641	27.537214
12307.219149	192.475000	1920.328125	169.627975
12307.219149	192.475000	1919.349609	50.421192
12307.219149	192.475000	1918.370117	50.871834
12307.219149	192.475000	1917.391602	166.031570
12307.219149	192.475000	1916.412109	185.981903
12307.219149	192.475000	1915.431641	169.328491
12307.219149	192.475000	1914.452148	120.972534
12307.219149	192.475000	1913.472656	38.491940
12307.219149	192.475000	1912.492188	-2.505120
12307.219149	192.475000	1911.511719	51.592133
12307.219149	192.475000	1910.531250	56.920486
12307.219149	192.475000	1909.550781	220.652847
12307.219149	192.475000	1908.569336	-25.011841
12307.219149	192.475000	1907.588867	-44.028969
12307.219149	192.475000	1906.607422	221.928955
12307.219149	192.475000	1905.625977	-30.901434
12307.219149	192.475000	1904.644531	-91.293579
12307.219149	192.475000	1903.662109	181.830276
12307.219149	192.475000	1902.680664	123.856476
12307.219149	192.475000	1901.698242	92.672005
12307.219149	192.475000	1900.715820	146.651138
12307.219149	192.475000	1899.733398	35.204903
12307.219149	192.475000	1898.750000	-68.902458
12307.219149	192.475000	1897.767578	36.141102
12307.219149	192.475000	1896.784180	-36.323391
12307.219149	192.475000	1895.800781	-52.855328
12307.219149	192.475000	1894.817383	47.265846
12307.219149	192.475000	1893.833984	62.310478
12307.219149	192.475000	1892.850586	227.962967
12307.219149	192.475000	1891.866211	14.660305
12307.219149	192.475000	1890.881836	-18.865931
12307.219149	192.475000	1889.897461	146.706314
12307.219149	192.475000	1888.913086	108.311409
12307.219149	192.475000	1887.927734	-70.835373
12307.219149	192.475000	1886.943359	-60.647705
12307.219149	192.475000	1885.958008	230.959488
12307.219149	192.475000	1884.972656	119.802681
12307.219149	192.475000	1883.987305	59.613056
12307.219149	192.475000	1883.001953	-99.969032
12307.219149	192.475000	1882.015625	130.810715
12307.219149	192.475000	1881.029297	104.578300
12307.219149	192.475000	1880.042969	-23.428276
12307.219149	192.475000	1879.056641	47.286777
12307.219149	192.475000	1878.070313	-15.263167
12307.219149	192.475000	1877.083984	188.624710
12307.219149	192.475000	1876.096680	60.682171
12307.219149	192.475000	1875.109375	90.152390
12307.219149	192.475000	1874.122070	-52.257919
12307.219149	192.475000	1873.134766	-114.755150
12307.219149	192.475000	1872.146484	-36.890785
12307.219149	192.475000	1871.159180	40.937119
12307.219149	192.475000	1870.170898	-65.098686
12307.219149	192.475000	1869.182617	-45.348778
12307.219149	192.475000	1868.194336	-37.702190
12307.219149	192.475000	1867.205078	-56.658688
12307.219149	192.475000	1866.216797	-58.696384
12307.219149	192.475000	1865.227539	-46.243191
12307.219149	192.475000	1864.238281	31.430405
12307.219149	192.475000	1863.249023	-2.052929
12307.219149	192.475000	1862.259766	94.886513
12307.219149	192.475000	1861.269531	10.674659
12307.219149	192.475000	1860.279297	52.026398
12307.219149	192.475000	1859.290039	230.940826
12307.219149	192.475000	1858.298828	55.009926
12307.219149	192.475000	1857.308594	-75.020195
12307.219149	192.475000	1856.318359	-156.763672
12307.219149	192.475000	1855.327148	55.774689
12307.219149	192.475000	1854.335938	27.065681
12307.219149	192.475000	1853.344727	-4.057108
12307.219149	192.475000	1852.353516	49.192055
12307.219149	192.475000	1851.362305	133.738556
12307.219149	192.475000	1850.370117	160.404663
12307.219149	192.475000	1849.377930	76.219810
12307.219149	192.475000	1848.385742	13.729509
12307.219149	192.475000	1847.393555	52.400150
12307.219149	192.475000	1846.401367	59.737190
12307.219149	192.475000	1845.408203	30.941734
12307.219149	192.475000	1844.415039	-38.778973
12307.219149	192.475000	1843.421875	293.406708
12307.219149	192.475000	1842.428711	81.667290
12307.219149	192.475000	1841.435547	-89.114777
12307.219149	192.475000	1840.441406	124.983192
12307.219149	192.475000	1839.448242	9.529623
12307.219149	192.475000	1838.454102	209.063660
12307.219149	192.475000	1837.459961	122.445023
12307.219149	192.475000	1836.464844	-60.299179
12307.219149	192.475000	1835.470703	100.628159
12307.219149	192.475000	1834.475586	71.676178
12307.219149	192.475000	1833.480469	117.176361
12307.219149	192.475000	1832.485352	-94.332626
12307.219149	192.475000	1831.490234	203.258224
12307.219149	192.475000	1830.495117	311.059845
12307.219149	192.475000	1829.499023	123.567963
12307.219149	192.475000	1828.502930	296.091736
12307.219149	192.475000	1827.506836	218.995010
12307.219149	192.475000	1826.510742	177.886810
12307.219149	192.475000	1825.513672	129.573334
12307.219149	192.475000	1824.517578	217.939102
12307.219149	192.475000	1823.520508	114.443542
12307.219149	192.475000	1822.523438	-118.481018
12307.219149	192.475000	1821.526367	53.684593
12307.219149	192.475000	1820.529297	232.947845
12307.219149	192.475000	1819.531250	112.650932
12307.219149	192.475000	1818.533203	-122.599876
12307.219149	192.475000	1817.535156	207.385513
12307.219149	192.475000	1816.537109	108.628235
12307.219149	192.475000	1815.539063	110.424835
12307.219149	192.475000	1814.540039	52.353733
12307.219149	192.475000	1813.541992	109.141830
12307.219149	192.475000	1812.542969	70.174812
12307.219149	192.475000	1811.543945	148.406799
12307.219149	192.475000	1810.543945	44.811626
12307.219149	192.475000	1809.544922	32.092995
12307.219149	192.475000	1808.544922	-171.912445
12307.219149	192.475000	1807.544922	30.478075
12307.219149	192.475000	1806.544922	170.624603
12307.219149	192.475000	1805.544922	-164.802246
12307.219149	192.475000	1804.544922	66.044899
12307.219149	192.475000	1803.543945	-37.617138
12307.219149	192.475000	1802.542969	-138.884705
12307.219149	192.475000	1801.541992	196.780975
12307.219149	192.475000	1800.541016	147.958740
12307.219149	192.475000	1799.539063	137.306732
12307.219149	192.475000	1798.538086	55.039108
12307.219149	192.475000	1797.536133	8.554423
12307.219149	192.475000	1796.534180	-78.497383
12307.219149	192.475000	1795.532227	25.238926
12307.219149	192.475000	1794.529297	83.596146
12307.219149	192.475000	1793.527344	-113.187759
12307.219149	192.475000	1792.524414	173.921188
12307.219149	192.475000	1791.521484	-53.857529
12307.219149	192.475000	1790.518555	130.606720
12307.219149	192.475000	1789.514648	-25.685404
12307.219149	192.475000	1788.511719	18.110840
12307.219149	192.475000	1787.507813	61.851398
12307.219149	192.475000	1786.503906	-30.166903
12307.219149	192.475000	1785.500000	49.199303
12307.219149	192.475000	1784.496094	49.960579
12307.219149	192.475000	1783.491211	41.165245
12307.219149	192.475000	1782.486328	84.672775
12307.219149	192.475000	1781.481445	285.111908
12307.219149	192.475000	1780.476563	21.706144
12307.219149	192.475000	1779.471680	200.605713
12307.219149	192.475000	1778.465820	258.160522
12307.219149	192.475000	1777.460938	213.456421
12307.219149	192.475000	1776.455078	118.826195
12307.219149	192.475000	1775.449219	128.731155
12307.219149	192.475000	1774.442383	88.706673
12307.219149	192.475000	1773.436523	84.286140
12307.219149	192.475000	1772.429688	122.565758
12307.219149	192.475000	1771.422852	110.937675
12307.219149	192.475000	1770.416016	203.712357
12307.219149	192.475000	1769.409180	11.634833
12307.219149	192.475000	1768.402344	52.115181
12307.219149	192.475000	1767.394531	137.609436
12307.219149	192.475000	1766.386719	85.468964
12307.219149	192.475000	1765.378906	147.131210
12307.219149	192.475000	1764.371094	260.891022
12307.219149	192.475000	1763.362305	-33.151127
12307.219149	192.475000	1762.354492	130.289032
12307.219149	192.475000	1761.345703	220.168274
12307.219149	192.475000	1760.336914	113.338234
12307.219149	192.475000	1759.328125	4.140674
12307.219149	192.475000	1758.318359	134.128036
12307.219149	192.475000	1757.308594	204.831787
12307.219149	192.475000	1756.299805	147.638962
12307.219149	192.475000	1755.290039	-32.651283
12307.219149	192.475000	1754.279297	324.251007
12307.219149	192.475000	1753.269531	49.278255
12307.219149	192.475000	1752.258789	13.279252
12307.219149	192.475000	1751.249023	-41.662998
12307.219149	192.475000	1750.238281	-82.441093
12307.219149	192.475000	1749.226563	23.328676
12307.219149	192.475000	1748.215820	-97.892487
12307.219149	192.475000	1747.204102	125.920586
12307.219149	192.475000	1746.193359	84.980209
12307.219149	192.475000	1745.181641	162.127838
12307.219149	192.475000	1744.168945	-58.393421
12307.219149	192.475000	1743.157227	-75.785049
12307.219149	192.475000	1742.144531	13.029544
12307.219149	192.475000	1741.132813	203.276749
12307.219149	192.475000	1740.120117	1.635566
12307.219149	192.475000	1739.106445	28.910671
12307.219149	192.475000	1738.093750	126.914642
12307.219149	192.475000	1737.080078	-119.536026
12307.219149	192.475000	1736.067383	58.561821
12307.219149	192.475000	1735.053711	88.004036
12307.219149	192.475000	1734.040039	51.389454
12307.219149	192.475000	1733.025391	-13.537852
12307.219149	192.475000	1732.011719	-139.743164
12307.219149	192.475000	1730.997070	-143.430878
12307.219149	192.475000	1729.982422	86.045845
12307.219149	192.475000	1728.967773	-42.583321
12307.219149	192.475000	1727.952148	78.389404
12307.219149	192.475000	1726.937500	55.674923
12307.219149	192.475000	1725.921875	-47.103390
12307.219149	192.475000	1724.906250	-86.339478
12307.219149	192.475000	1723.890625	62.629948
12307.219149	192.475000	1722.875000	180.924225
12307.219149	192.475000	1721.858398	129.788086
12307.219149	192.475000	1720.841797	5.737890
12307.219149	192.475000	1719.825195	203.793396
12307.219149	192.475000	1718.808594	56.195076
12307.219149	192.475000	1717.791992	66.077911
12307.219149	192.475000	1716.774414	-107.362328
12307.219149	192.475000	1715.756836	-36.448921
12307.219149	192.475000	1714.739258	-52.504864
12307.219149	192.475000	1713.721680	65.266006
12307.219149	192.475000	1712.704102	-49.487625
12307.219149	192.475000	1711.685547	35.297066
12307.219149	192.475000	1710.667969	96.547951
12307.219149	192.475000	1709.649414	82.646225
12307.219149	192.475000	1708.630859	19.445654
12307.219149	192.475000	1707.611328	-48.461765
12307.219149	192.475000	1706.592773	-78.848083
12307.219149	192.475000	1705.573242	-22.506142
12307.219149	192.475000	1704.553711	-106.877953
12307.219149	192.475000	1703.534180	-104.527664
12307.219149	192.475000	1702.513672	82.912987
12307.219149	192.475000	1701.494141	-24.959564
12307.219149	192.475000	1700.473633	56.915073
12307.219149	192.475000	1699.453125	122.332382
12307.219149	192.475000	1698.432617	-105.011032
12307.219149	192.475000	1697.412109	171.054138
12307.219149	192.475000	1696.390625	135.659653
12307.219149	192.475000	1695.369141	81.525940
12307.219149	192.475000	1694.347656	174.791046
12307.219149	192.475000	1693.326172	87.858650
12307.219149	192.475000	1692.304688	-22.460348
12307.219149	192.475000	1691.282227	94.060463
12307.219149	192.475000	1690.260742	147.386353
12307.219149	192.475000	1689.238281	69.751945
12307.219149	192.475000	1688.214844	3.800161
12307.219149	192.475000	1687.192383	71.040344
12307.219149	192.475000	1686.168945	189.619141
12307.219149	192.475000	1685.146484	146.962006
12307.219149	192.475000	1684.123047	129.976273
12307.219149	192.475000	1683.099609	178.347519
12307.219149	192.475000	1682.075195	119.284431
12307.219149	192.475000	1681.051758	216.600357
12307.219149	192.475000	1680.027344	225.173157
12307.219149	192.475000	1679.002930	506.687561
12307.219149	192.475000	1677.978516	321.543396
12307.219149	192.475000	1676.953125	110.785172
12307.219149	192.475000	1675.928711	303.481384
12307.219149	192.475000	1674.903320	269.938416
12307.219149	192.475000	1673.877930	338.941681
12307.219149	192.475000	1672.852539	184.179123
12307.219149	192.475000	1671.826172	162.254761
12307.219149	192.475000	1670.800781	322.022461
12307.219149	192.475000	1669.774414	220.848923
12307.219149	192.475000	1668.748047	229.136917
12307.219149	192.475000	1667.721680	60.463074
12307.219149	192.475000	1666.694336	280.552429
12307.219149	192.475000	1665.667969	291.092010
12307.219149	192.475000	1664.640625	136.399597
12307.219149	192.475000	1663.613281	437.711029
12307.219149	192.475000	1662.585938	166.718216
12307.219149	192.475000	1661.557617	205.090439
12307.219149	192.475000	1660.530273	220.186798
12307.219149	192.475000	1659.501953	363.104218
12307.219149	192.475000	1658.473633	471.088409
12307.219149	192.475000	1657.444336	302.495148
12307.219149	192.475000	1656.416016	431.326233
12307.219149	192.475000	1655.386719	430.013458
12307.219149	192.475000	1654.358398	282.386780
12307.219149	192.475000	1653.328125	148.723450
12307.219149	192.475000	1652.298828	289.028473
12307.219149	192.475000	1651.269531	336.429077
12307.219149	192.475000	1650.239258	147.101349
12307.219149	192.475000	1649.208984	370.803802
12307.219149	192.475000	1648.178711	464.510590
12307.219149	192.475000	1647.148438	472.361877
12307.219149	192.475000	1646.117188	361.937988
12307.219149	192.475000	1645.086914	460.197937
12307.219149	192.475000	1644.055664	618.666138
12307.219149	192.475000	1643.024414	552.279907
12307.219149	192.475000	1641.992188	516.024841
12307.219149	192.475000	1640.960938	368.591492
12307.219149	192.475000	1639.928711	526.916260
12307.219149	192.475000	1638.896484	550.869141
12307.219149	192.475000	1637.864258	556.285706
12307.219149	192.475000	1636.832031	651.966125
12307.219149	192.475000	1635.798828	738.341431
12307.219149	192.475000	1634.766602	528.522034
12307.219149	192.475000	1633.733398	587.118286
12307.219149	192.475000	1632.699219	664.185303
12307.219149	192.475000	1631.666016	653.352295
12307.219149	192.475000	1630.632813	496.867493
12307.219149	192.475000	1629.598633	414.403931
12307.219149	192.475000	1628.564453	551.522095
12307.219149	192.475000	1627.530273	695.518311
12307.219149	192.475000	1626.495117	686.979858
12307.219149	192.475000	1625.460938	720.026001
12307.219149	192.475000	1624.425781	575.239685
12307.219149	192.475000	1623.390625	689.099304
12307.219149	192.475000	1622.355469	491.284088
12307.219149	192.475000	1621.319336	766.668335
12307.219149	192.475000	1620.284180	587.381104
12307.219149	192.475000	1619.248047	717.302246
12307.219149	192.475000	1618.211914	764.139587
12307.219149	192.475000	1617.174805	748.691345
12307.219149	192.475000	1616.138672	751.706604
12307.219149	192.475000	1615.101563	650.983215
12307.219149	192.475000	1614.065430	773.875732
12307.219149	192.475000	1613.027344	657.063782
12307.219149	192.475000	1611.990234	828.296570
12307.219149	192.475000	1610.953125	543.388855
12307.219149	192.475000	1609.915039	756.040222
12307.219149	192.475000	1608.876953	637.052307
12307.219149	192.475000	1607.838867	824.297607
12307.219149	192.475000	1606.800781	877.985657
12307.219149	192.475000	1605.761719	940.861084
12307.219149	192.475000	1604.723633	937.006653
12307.219149	192.475000	1603.684570	769.838745
12307.219149	192.475000	1602.644531	749.932129
12307.219149	192.475000	1601.605469	1038.172363
12307.219149	192.475000	1600.566406	859.625244
12307.219149	192.475000	1599.526367	968.468994
12307.219149	192.475000	1598.486328	927.910339
12307.219149	192.475000	1597.446289	963.203674
12307.219149	192.475000	1596.405273	1065.110352
12307.219149	192.475000	1595.365234	992.449280
12307.219149	192.475000	1594.324219	1020.862488
12307.219149	192.475000	1593.283203	819.699341
12307.219149	192.475000	1592.242188	1029.504150
12307.219149	192.475000	1591.200195	936.309875
12307.219149	192.475000	1590.159180	583.900024
12307.219149	192.475000	1589.117188	830.382751
12307.219149	192.475000	1588.075195	810.733215
12307.219149	192.475000	1587.032227	871.366028
12307.219149	192.475000	1585.990234	966.391846
12307.219149	192.475000	1584.947266	756.529297
12307.219149	192.475000	1583.904297	842.411560
12307.219149	192.475000	1582.861328	999.313538
12307.219149	192.475000	1581.818359	684.254395
12307.219149	192.475000	1580.775391	990.049927
12307.219149	192.475000	1579.731445	734.698242
12307.219149	192.475000	1578.687500	1008.354736
12307.219149	192.475000	1577.643555	1023.261108
12307.219149	192.475000	1576.598633	1010.719177
12307.219149	192.475000	1575.554688	1011.942383
12307.219149	192.475000	1574.509766	910.237854
12307.219149	192.475000	1573.464844	922.965027
12307.219149	192.475000	1572.419922	732.185913
