#X		#Y		#Wave		#Intensity
11876.285638	1410.570000	1999.980469	-43.326675
11876.285638	1410.570000	1999.016602	-49.683270
11876.285638	1410.570000	1998.052734	-7.304196
11876.285638	1410.570000	1997.087891	54.840099
11876.285638	1410.570000	1996.123047	183.813248
11876.285638	1410.570000	1995.158203	82.315163
11876.285638	1410.570000	1994.193359	-53.862427
11876.285638	1410.570000	1993.228516	129.411499
11876.285638	1410.570000	1992.262695	97.180862
11876.285638	1410.570000	1991.297852	114.430046
11876.285638	1410.570000	1990.332031	-73.782181
11876.285638	1410.570000	1989.366211	96.834526
11876.285638	1410.570000	1988.399414	76.855095
11876.285638	1410.570000	1987.433594	-42.093262
11876.285638	1410.570000	1986.466797	-74.473152
11876.285638	1410.570000	1985.500977	81.044876
11876.285638	1410.570000	1984.534180	26.340336
11876.285638	1410.570000	1983.567383	-107.468681
11876.285638	1410.570000	1982.599609	-112.753357
11876.285638	1410.570000	1981.632813	57.360397
11876.285638	1410.570000	1980.665039	-41.882027
11876.285638	1410.570000	1979.697266	108.342117
11876.285638	1410.570000	1978.729492	70.808609
11876.285638	1410.570000	1977.761719	15.981709
11876.285638	1410.570000	1976.792969	180.845932
11876.285638	1410.570000	1975.825195	93.885925
11876.285638	1410.570000	1974.856445	76.027336
11876.285638	1410.570000	1973.887695	3.876661
11876.285638	1410.570000	1972.918945	67.397583
11876.285638	1410.570000	1971.949219	-120.678024
11876.285638	1410.570000	1970.980469	51.294804
11876.285638	1410.570000	1970.010742	70.336632
11876.285638	1410.570000	1969.041016	-26.493874
11876.285638	1410.570000	1968.071289	-66.625191
11876.285638	1410.570000	1967.101563	4.116704
11876.285638	1410.570000	1966.130859	84.670044
11876.285638	1410.570000	1965.161133	-44.177017
11876.285638	1410.570000	1964.190430	191.464432
11876.285638	1410.570000	1963.219727	62.615490
11876.285638	1410.570000	1962.249023	81.498451
11876.285638	1410.570000	1961.277344	53.598778
11876.285638	1410.570000	1960.306641	161.035248
11876.285638	1410.570000	1959.334961	118.345009
11876.285638	1410.570000	1958.363281	-12.893717
11876.285638	1410.570000	1957.391602	106.757133
11876.285638	1410.570000	1956.419922	51.772697
11876.285638	1410.570000	1955.447266	102.510849
11876.285638	1410.570000	1954.474609	77.023911
11876.285638	1410.570000	1953.501953	83.485252
11876.285638	1410.570000	1952.529297	104.677574
11876.285638	1410.570000	1951.556641	17.763962
11876.285638	1410.570000	1950.583984	-96.142342
11876.285638	1410.570000	1949.610352	111.680183
11876.285638	1410.570000	1948.636719	-21.856781
11876.285638	1410.570000	1947.663086	122.037720
11876.285638	1410.570000	1946.689453	-43.370266
11876.285638	1410.570000	1945.715820	156.902069
11876.285638	1410.570000	1944.741211	16.072754
11876.285638	1410.570000	1943.767578	-95.273552
11876.285638	1410.570000	1942.792969	-83.958580
11876.285638	1410.570000	1941.818359	15.620736
11876.285638	1410.570000	1940.842773	34.257526
11876.285638	1410.570000	1939.868164	-30.453770
11876.285638	1410.570000	1938.892578	51.895508
11876.285638	1410.570000	1937.916992	-12.800597
11876.285638	1410.570000	1936.941406	59.710175
11876.285638	1410.570000	1935.965820	-56.402939
11876.285638	1410.570000	1934.990234	-128.395523
11876.285638	1410.570000	1934.013672	10.196883
11876.285638	1410.570000	1933.037109	-25.065718
11876.285638	1410.570000	1932.060547	91.426308
11876.285638	1410.570000	1931.083984	14.560899
11876.285638	1410.570000	1930.107422	45.371983
11876.285638	1410.570000	1929.129883	22.356661
11876.285638	1410.570000	1928.153320	28.697664
11876.285638	1410.570000	1927.175781	64.378212
11876.285638	1410.570000	1926.198242	-34.413803
11876.285638	1410.570000	1925.219727	145.477859
11876.285638	1410.570000	1924.242188	14.939033
11876.285638	1410.570000	1923.263672	70.144791
11876.285638	1410.570000	1922.285156	66.700951
11876.285638	1410.570000	1921.306641	-12.455804
11876.285638	1410.570000	1920.328125	-32.974251
11876.285638	1410.570000	1919.349609	5.113035
11876.285638	1410.570000	1918.370117	-0.751614
11876.285638	1410.570000	1917.391602	42.200348
11876.285638	1410.570000	1916.412109	2.171813
11876.285638	1410.570000	1915.431641	118.301559
11876.285638	1410.570000	1914.452148	5.100296
11876.285638	1410.570000	1913.472656	40.710022
11876.285638	1410.570000	1912.492188	-33.416698
11876.285638	1410.570000	1911.511719	92.393234
11876.285638	1410.570000	1910.531250	-42.646736
11876.285638	1410.570000	1909.550781	36.819904
11876.285638	1410.570000	1908.569336	1.742771
11876.285638	1410.570000	1907.588867	17.839018
11876.285638	1410.570000	1906.607422	43.674301
11876.285638	1410.570000	1905.625977	-42.515339
11876.285638	1410.570000	1904.644531	-55.628807
11876.285638	1410.570000	1903.662109	-102.814156
11876.285638	1410.570000	1902.680664	-62.362595
11876.285638	1410.570000	1901.698242	-107.090302
11876.285638	1410.570000	1900.715820	20.936470
11876.285638	1410.570000	1899.733398	-50.541561
11876.285638	1410.570000	1898.750000	23.928604
11876.285638	1410.570000	1897.767578	-11.044882
11876.285638	1410.570000	1896.784180	-106.779663
11876.285638	1410.570000	1895.800781	-8.026604
11876.285638	1410.570000	1894.817383	20.217682
11876.285638	1410.570000	1893.833984	12.008341
11876.285638	1410.570000	1892.850586	30.526493
11876.285638	1410.570000	1891.866211	56.326683
11876.285638	1410.570000	1890.881836	11.697546
11876.285638	1410.570000	1889.897461	-81.469849
11876.285638	1410.570000	1888.913086	-16.817160
11876.285638	1410.570000	1887.927734	33.252144
11876.285638	1410.570000	1886.943359	5.656157
11876.285638	1410.570000	1885.958008	58.132908
11876.285638	1410.570000	1884.972656	-90.734085
11876.285638	1410.570000	1883.987305	-14.002994
11876.285638	1410.570000	1883.001953	-162.795975
11876.285638	1410.570000	1882.015625	-47.288486
11876.285638	1410.570000	1881.029297	77.873482
11876.285638	1410.570000	1880.042969	-53.884880
11876.285638	1410.570000	1879.056641	-1.452325
11876.285638	1410.570000	1878.070313	2.513817
11876.285638	1410.570000	1877.083984	52.497334
11876.285638	1410.570000	1876.096680	5.602056
11876.285638	1410.570000	1875.109375	53.147774
11876.285638	1410.570000	1874.122070	93.415138
11876.285638	1410.570000	1873.134766	87.685280
11876.285638	1410.570000	1872.146484	40.822773
11876.285638	1410.570000	1871.159180	-71.340828
11876.285638	1410.570000	1870.170898	24.555544
11876.285638	1410.570000	1869.182617	11.590452
11876.285638	1410.570000	1868.194336	-25.548244
11876.285638	1410.570000	1867.205078	-62.672749
11876.285638	1410.570000	1866.216797	-36.940788
11876.285638	1410.570000	1865.227539	12.946213
11876.285638	1410.570000	1864.238281	-53.157330
11876.285638	1410.570000	1863.249023	-22.611422
11876.285638	1410.570000	1862.259766	-54.871281
11876.285638	1410.570000	1861.269531	48.104401
11876.285638	1410.570000	1860.279297	-34.857815
11876.285638	1410.570000	1859.290039	-125.031441
11876.285638	1410.570000	1858.298828	-53.476387
11876.285638	1410.570000	1857.308594	49.418224
11876.285638	1410.570000	1856.318359	116.086258
11876.285638	1410.570000	1855.327148	30.771643
11876.285638	1410.570000	1854.335938	75.711098
11876.285638	1410.570000	1853.344727	144.742844
11876.285638	1410.570000	1852.353516	11.252467
11876.285638	1410.570000	1851.362305	-86.037048
11876.285638	1410.570000	1850.370117	-0.151809
11876.285638	1410.570000	1849.377930	51.969120
11876.285638	1410.570000	1848.385742	14.940329
11876.285638	1410.570000	1847.393555	-17.260323
11876.285638	1410.570000	1846.401367	-75.938667
11876.285638	1410.570000	1845.408203	-50.336151
11876.285638	1410.570000	1844.415039	73.941170
11876.285638	1410.570000	1843.421875	5.642638
11876.285638	1410.570000	1842.428711	86.545441
11876.285638	1410.570000	1841.435547	126.518051
11876.285638	1410.570000	1840.441406	36.589993
11876.285638	1410.570000	1839.448242	9.215393
11876.285638	1410.570000	1838.454102	-3.727214
11876.285638	1410.570000	1837.459961	81.889053
11876.285638	1410.570000	1836.464844	1.633247
11876.285638	1410.570000	1835.470703	12.714897
11876.285638	1410.570000	1834.475586	21.385548
11876.285638	1410.570000	1833.480469	106.912727
11876.285638	1410.570000	1832.485352	81.929070
11876.285638	1410.570000	1831.490234	119.379234
11876.285638	1410.570000	1830.495117	34.374386
11876.285638	1410.570000	1829.499023	227.823364
11876.285638	1410.570000	1828.502930	68.424896
11876.285638	1410.570000	1827.506836	36.245197
11876.285638	1410.570000	1826.510742	92.829514
11876.285638	1410.570000	1825.513672	43.855244
11876.285638	1410.570000	1824.517578	28.464643
11876.285638	1410.570000	1823.520508	-15.697788
11876.285638	1410.570000	1822.523438	38.429966
11876.285638	1410.570000	1821.526367	85.339928
11876.285638	1410.570000	1820.529297	26.793167
11876.285638	1410.570000	1819.531250	-12.573009
11876.285638	1410.570000	1818.533203	79.806870
11876.285638	1410.570000	1817.535156	-7.466293
11876.285638	1410.570000	1816.537109	-3.729079
11876.285638	1410.570000	1815.539063	105.330360
11876.285638	1410.570000	1814.540039	130.569031
11876.285638	1410.570000	1813.541992	21.781698
11876.285638	1410.570000	1812.542969	-63.047928
11876.285638	1410.570000	1811.543945	103.316086
11876.285638	1410.570000	1810.543945	116.542244
11876.285638	1410.570000	1809.544922	48.454185
11876.285638	1410.570000	1808.544922	64.058022
11876.285638	1410.570000	1807.544922	98.768425
11876.285638	1410.570000	1806.544922	90.439262
11876.285638	1410.570000	1805.544922	10.421927
11876.285638	1410.570000	1804.544922	-12.240748
11876.285638	1410.570000	1803.543945	98.849655
11876.285638	1410.570000	1802.542969	90.486298
11876.285638	1410.570000	1801.541992	-27.713295
11876.285638	1410.570000	1800.541016	61.801514
11876.285638	1410.570000	1799.539063	46.257244
11876.285638	1410.570000	1798.538086	-50.423111
11876.285638	1410.570000	1797.536133	-65.962166
11876.285638	1410.570000	1796.534180	11.521201
11876.285638	1410.570000	1795.532227	24.572256
11876.285638	1410.570000	1794.529297	78.142082
11876.285638	1410.570000	1793.527344	43.473122
11876.285638	1410.570000	1792.524414	-10.263285
11876.285638	1410.570000	1791.521484	-21.095636
11876.285638	1410.570000	1790.518555	-48.614395
11876.285638	1410.570000	1789.514648	57.265270
11876.285638	1410.570000	1788.511719	27.336214
11876.285638	1410.570000	1787.507813	21.217421
11876.285638	1410.570000	1786.503906	136.510345
11876.285638	1410.570000	1785.500000	-19.614239
11876.285638	1410.570000	1784.496094	71.817688
11876.285638	1410.570000	1783.491211	-65.226311
11876.285638	1410.570000	1782.486328	109.418266
11876.285638	1410.570000	1781.481445	38.992531
11876.285638	1410.570000	1780.476563	20.898222
11876.285638	1410.570000	1779.471680	9.930157
11876.285638	1410.570000	1778.465820	96.417679
11876.285638	1410.570000	1777.460938	9.356569
11876.285638	1410.570000	1776.455078	190.835785
11876.285638	1410.570000	1775.449219	146.526749
11876.285638	1410.570000	1774.442383	104.595207
11876.285638	1410.570000	1773.436523	65.040947
11876.285638	1410.570000	1772.429688	8.865916
11876.285638	1410.570000	1771.422852	26.292879
11876.285638	1410.570000	1770.416016	98.291473
11876.285638	1410.570000	1769.409180	84.815239
11876.285638	1410.570000	1768.402344	30.993973
11876.285638	1410.570000	1767.394531	34.111488
11876.285638	1410.570000	1766.386719	-100.351074
11876.285638	1410.570000	1765.378906	80.611099
11876.285638	1410.570000	1764.371094	-113.110947
11876.285638	1410.570000	1763.362305	58.272408
11876.285638	1410.570000	1762.354492	66.046928
11876.285638	1410.570000	1761.345703	88.019966
11876.285638	1410.570000	1760.336914	57.849991
11876.285638	1410.570000	1759.328125	-59.964020
11876.285638	1410.570000	1758.318359	-75.917168
11876.285638	1410.570000	1757.308594	-18.479832
11876.285638	1410.570000	1756.299805	126.510498
11876.285638	1410.570000	1755.290039	-57.560375
11876.285638	1410.570000	1754.279297	-80.663742
11876.285638	1410.570000	1753.269531	-39.892952
11876.285638	1410.570000	1752.258789	-34.636700
11876.285638	1410.570000	1751.249023	51.013687
11876.285638	1410.570000	1750.238281	-69.103500
11876.285638	1410.570000	1749.226563	-141.908737
11876.285638	1410.570000	1748.215820	-25.607533
11876.285638	1410.570000	1747.204102	-67.703453
11876.285638	1410.570000	1746.193359	3.614670
11876.285638	1410.570000	1745.181641	-40.864803
11876.285638	1410.570000	1744.168945	-94.792328
11876.285638	1410.570000	1743.157227	49.645317
11876.285638	1410.570000	1742.144531	80.684166
11876.285638	1410.570000	1741.132813	69.206841
11876.285638	1410.570000	1740.120117	22.315046
11876.285638	1410.570000	1739.106445	-83.566467
11876.285638	1410.570000	1738.093750	-144.597946
11876.285638	1410.570000	1737.080078	-28.719772
11876.285638	1410.570000	1736.067383	-28.455891
11876.285638	1410.570000	1735.053711	-202.688126
11876.285638	1410.570000	1734.040039	-39.766354
11876.285638	1410.570000	1733.025391	66.509834
11876.285638	1410.570000	1732.011719	73.758713
11876.285638	1410.570000	1730.997070	5.594909
11876.285638	1410.570000	1729.982422	137.664246
11876.285638	1410.570000	1728.967773	62.416462
11876.285638	1410.570000	1727.952148	-81.105835
11876.285638	1410.570000	1726.937500	41.438931
11876.285638	1410.570000	1725.921875	145.089584
11876.285638	1410.570000	1724.906250	-38.421059
11876.285638	1410.570000	1723.890625	-52.470890
11876.285638	1410.570000	1722.875000	36.975285
11876.285638	1410.570000	1721.858398	-12.396926
11876.285638	1410.570000	1720.841797	46.404163
11876.285638	1410.570000	1719.825195	-106.430000
11876.285638	1410.570000	1718.808594	-71.171829
11876.285638	1410.570000	1717.791992	-151.101059
11876.285638	1410.570000	1716.774414	-12.493570
11876.285638	1410.570000	1715.756836	-71.293617
11876.285638	1410.570000	1714.739258	-104.249695
11876.285638	1410.570000	1713.721680	-92.590240
11876.285638	1410.570000	1712.704102	90.447487
11876.285638	1410.570000	1711.685547	1.091470
11876.285638	1410.570000	1710.667969	52.576363
11876.285638	1410.570000	1709.649414	14.855120
11876.285638	1410.570000	1708.630859	12.324897
11876.285638	1410.570000	1707.611328	7.432376
11876.285638	1410.570000	1706.592773	105.717995
11876.285638	1410.570000	1705.573242	58.573090
11876.285638	1410.570000	1704.553711	-19.045065
11876.285638	1410.570000	1703.534180	55.702972
11876.285638	1410.570000	1702.513672	64.790192
11876.285638	1410.570000	1701.494141	38.715687
11876.285638	1410.570000	1700.473633	101.650436
11876.285638	1410.570000	1699.453125	9.969295
11876.285638	1410.570000	1698.432617	225.061020
11876.285638	1410.570000	1697.412109	74.832939
11876.285638	1410.570000	1696.390625	8.911798
11876.285638	1410.570000	1695.369141	-68.699577
11876.285638	1410.570000	1694.347656	-106.518661
11876.285638	1410.570000	1693.326172	5.382882
11876.285638	1410.570000	1692.304688	47.058872
11876.285638	1410.570000	1691.282227	51.287849
11876.285638	1410.570000	1690.260742	-9.962039
11876.285638	1410.570000	1689.238281	155.540970
11876.285638	1410.570000	1688.214844	-22.593164
11876.285638	1410.570000	1687.192383	0.283945
11876.285638	1410.570000	1686.168945	-7.234177
11876.285638	1410.570000	1685.146484	13.268501
11876.285638	1410.570000	1684.123047	141.173050
11876.285638	1410.570000	1683.099609	-18.175230
11876.285638	1410.570000	1682.075195	34.956215
11876.285638	1410.570000	1681.051758	48.378540
11876.285638	1410.570000	1680.027344	17.443922
11876.285638	1410.570000	1679.002930	-88.150238
11876.285638	1410.570000	1677.978516	156.178726
11876.285638	1410.570000	1676.953125	41.242920
11876.285638	1410.570000	1675.928711	38.264252
11876.285638	1410.570000	1674.903320	-20.678141
11876.285638	1410.570000	1673.877930	6.630785
11876.285638	1410.570000	1672.852539	50.230244
11876.285638	1410.570000	1671.826172	84.479172
11876.285638	1410.570000	1670.800781	60.468250
11876.285638	1410.570000	1669.774414	94.679359
11876.285638	1410.570000	1668.748047	38.050739
11876.285638	1410.570000	1667.721680	-9.254848
11876.285638	1410.570000	1666.694336	-14.656334
11876.285638	1410.570000	1665.667969	52.079647
11876.285638	1410.570000	1664.640625	-18.503597
11876.285638	1410.570000	1663.613281	34.226093
11876.285638	1410.570000	1662.585938	96.228844
11876.285638	1410.570000	1661.557617	114.011955
11876.285638	1410.570000	1660.530273	69.005188
11876.285638	1410.570000	1659.501953	35.626762
11876.285638	1410.570000	1658.473633	55.705673
11876.285638	1410.570000	1657.444336	24.644701
11876.285638	1410.570000	1656.416016	135.303848
11876.285638	1410.570000	1655.386719	62.411339
11876.285638	1410.570000	1654.358398	119.589424
11876.285638	1410.570000	1653.328125	116.363907
11876.285638	1410.570000	1652.298828	192.060913
11876.285638	1410.570000	1651.269531	91.327843
11876.285638	1410.570000	1650.239258	134.494202
11876.285638	1410.570000	1649.208984	101.074593
11876.285638	1410.570000	1648.178711	102.453491
11876.285638	1410.570000	1647.148438	27.292219
11876.285638	1410.570000	1646.117188	179.383148
11876.285638	1410.570000	1645.086914	4.536170
11876.285638	1410.570000	1644.055664	219.139526
11876.285638	1410.570000	1643.024414	194.964233
11876.285638	1410.570000	1641.992188	92.014549
11876.285638	1410.570000	1640.960938	137.354324
11876.285638	1410.570000	1639.928711	279.940125
11876.285638	1410.570000	1638.896484	186.276871
11876.285638	1410.570000	1637.864258	104.219749
11876.285638	1410.570000	1636.832031	225.878845
11876.285638	1410.570000	1635.798828	231.772552
11876.285638	1410.570000	1634.766602	205.267990
11876.285638	1410.570000	1633.733398	343.011627
11876.285638	1410.570000	1632.699219	175.395767
11876.285638	1410.570000	1631.666016	174.337357
11876.285638	1410.570000	1630.632813	249.569138
11876.285638	1410.570000	1629.598633	334.011871
11876.285638	1410.570000	1628.564453	279.752563
11876.285638	1410.570000	1627.530273	109.979393
11876.285638	1410.570000	1626.495117	284.482758
11876.285638	1410.570000	1625.460938	352.669342
11876.285638	1410.570000	1624.425781	270.720795
11876.285638	1410.570000	1623.390625	253.448196
11876.285638	1410.570000	1622.355469	256.954865
11876.285638	1410.570000	1621.319336	410.471039
11876.285638	1410.570000	1620.284180	307.796539
11876.285638	1410.570000	1619.248047	302.052917
11876.285638	1410.570000	1618.211914	439.318420
11876.285638	1410.570000	1617.174805	288.258392
11876.285638	1410.570000	1616.138672	342.464661
11876.285638	1410.570000	1615.101563	299.826294
11876.285638	1410.570000	1614.065430	379.359467
11876.285638	1410.570000	1613.027344	295.247772
11876.285638	1410.570000	1611.990234	296.415009
11876.285638	1410.570000	1610.953125	348.256958
11876.285638	1410.570000	1609.915039	195.109436
11876.285638	1410.570000	1608.876953	260.763580
11876.285638	1410.570000	1607.838867	305.673706
11876.285638	1410.570000	1606.800781	334.454773
11876.285638	1410.570000	1605.761719	383.934296
11876.285638	1410.570000	1604.723633	316.059540
11876.285638	1410.570000	1603.684570	317.218658
11876.285638	1410.570000	1602.644531	309.177490
11876.285638	1410.570000	1601.605469	245.957520
11876.285638	1410.570000	1600.566406	323.000488
11876.285638	1410.570000	1599.526367	416.102692
11876.285638	1410.570000	1598.486328	357.499084
11876.285638	1410.570000	1597.446289	342.575623
11876.285638	1410.570000	1596.405273	359.818481
11876.285638	1410.570000	1595.365234	296.674957
11876.285638	1410.570000	1594.324219	348.370117
11876.285638	1410.570000	1593.283203	331.174591
11876.285638	1410.570000	1592.242188	522.867859
11876.285638	1410.570000	1591.200195	319.761414
11876.285638	1410.570000	1590.159180	527.451294
11876.285638	1410.570000	1589.117188	354.254517
11876.285638	1410.570000	1588.075195	192.597351
11876.285638	1410.570000	1587.032227	299.302551
11876.285638	1410.570000	1585.990234	385.339142
11876.285638	1410.570000	1584.947266	251.290817
11876.285638	1410.570000	1583.904297	341.895355
11876.285638	1410.570000	1582.861328	388.934753
11876.285638	1410.570000	1581.818359	296.217804
11876.285638	1410.570000	1580.775391	256.223755
11876.285638	1410.570000	1579.731445	229.989182
