#X		#Y		#Wave		#Intensity
11709.988298	1452.191667	1999.980469	1.982806
11709.988298	1452.191667	1999.016602	-39.671989
11709.988298	1452.191667	1998.052734	33.896969
11709.988298	1452.191667	1997.087891	84.990120
11709.988298	1452.191667	1996.123047	-49.905365
11709.988298	1452.191667	1995.158203	119.806511
11709.988298	1452.191667	1994.193359	-82.193367
11709.988298	1452.191667	1993.228516	-26.716406
11709.988298	1452.191667	1992.262695	-18.426617
11709.988298	1452.191667	1991.297852	163.009857
11709.988298	1452.191667	1990.332031	-98.749023
11709.988298	1452.191667	1989.366211	-93.286896
11709.988298	1452.191667	1988.399414	40.708996
11709.988298	1452.191667	1987.433594	-70.336487
11709.988298	1452.191667	1986.466797	-23.168936
11709.988298	1452.191667	1985.500977	16.459564
11709.988298	1452.191667	1984.534180	85.640259
11709.988298	1452.191667	1983.567383	-20.791771
11709.988298	1452.191667	1982.599609	43.238884
11709.988298	1452.191667	1981.632813	-68.270805
11709.988298	1452.191667	1980.665039	62.265968
11709.988298	1452.191667	1979.697266	71.647293
11709.988298	1452.191667	1978.729492	-12.893842
11709.988298	1452.191667	1977.761719	28.434555
11709.988298	1452.191667	1976.792969	116.573715
11709.988298	1452.191667	1975.825195	66.397224
11709.988298	1452.191667	1974.856445	82.794228
11709.988298	1452.191667	1973.887695	-24.237818
11709.988298	1452.191667	1972.918945	14.237308
11709.988298	1452.191667	1971.949219	198.142136
11709.988298	1452.191667	1970.980469	7.126024
11709.988298	1452.191667	1970.010742	146.471237
11709.988298	1452.191667	1969.041016	103.312447
11709.988298	1452.191667	1968.071289	106.940117
11709.988298	1452.191667	1967.101563	16.887285
11709.988298	1452.191667	1966.130859	160.847321
11709.988298	1452.191667	1965.161133	-22.869942
11709.988298	1452.191667	1964.190430	-58.811321
11709.988298	1452.191667	1963.219727	-28.305016
11709.988298	1452.191667	1962.249023	36.612431
11709.988298	1452.191667	1961.277344	64.549934
11709.988298	1452.191667	1960.306641	57.991318
11709.988298	1452.191667	1959.334961	78.463341
11709.988298	1452.191667	1958.363281	-56.071716
11709.988298	1452.191667	1957.391602	30.752192
11709.988298	1452.191667	1956.419922	171.610626
11709.988298	1452.191667	1955.447266	110.798569
11709.988298	1452.191667	1954.474609	108.974037
11709.988298	1452.191667	1953.501953	148.903778
11709.988298	1452.191667	1952.529297	68.400856
11709.988298	1452.191667	1951.556641	86.170418
11709.988298	1452.191667	1950.583984	79.352112
11709.988298	1452.191667	1949.610352	-69.911331
11709.988298	1452.191667	1948.636719	-86.554787
11709.988298	1452.191667	1947.663086	174.181396
11709.988298	1452.191667	1946.689453	206.555344
11709.988298	1452.191667	1945.715820	111.304184
11709.988298	1452.191667	1944.741211	16.075741
11709.988298	1452.191667	1943.767578	-52.144203
11709.988298	1452.191667	1942.792969	58.681881
11709.988298	1452.191667	1941.818359	-247.385452
11709.988298	1452.191667	1940.842773	57.092945
11709.988298	1452.191667	1939.868164	23.199472
11709.988298	1452.191667	1938.892578	128.999756
11709.988298	1452.191667	1937.916992	11.788132
11709.988298	1452.191667	1936.941406	85.697365
11709.988298	1452.191667	1935.965820	78.749832
11709.988298	1452.191667	1934.990234	62.007931
11709.988298	1452.191667	1934.013672	-11.042096
11709.988298	1452.191667	1933.037109	57.914932
11709.988298	1452.191667	1932.060547	19.158104
11709.988298	1452.191667	1931.083984	24.464024
11709.988298	1452.191667	1930.107422	-139.042084
11709.988298	1452.191667	1929.129883	47.306049
11709.988298	1452.191667	1928.153320	20.818968
11709.988298	1452.191667	1927.175781	-88.791115
11709.988298	1452.191667	1926.198242	63.230198
11709.988298	1452.191667	1925.219727	56.321568
11709.988298	1452.191667	1924.242188	22.540426
11709.988298	1452.191667	1923.263672	-47.873238
11709.988298	1452.191667	1922.285156	-84.052849
11709.988298	1452.191667	1921.306641	114.262772
11709.988298	1452.191667	1920.328125	144.015457
11709.988298	1452.191667	1919.349609	-14.233362
11709.988298	1452.191667	1918.370117	110.749268
11709.988298	1452.191667	1917.391602	128.308090
11709.988298	1452.191667	1916.412109	45.821693
11709.988298	1452.191667	1915.431641	-100.057732
11709.988298	1452.191667	1914.452148	88.305931
11709.988298	1452.191667	1913.472656	-3.852992
11709.988298	1452.191667	1912.492188	145.428360
11709.988298	1452.191667	1911.511719	36.248108
11709.988298	1452.191667	1910.531250	129.426285
11709.988298	1452.191667	1909.550781	-55.235687
11709.988298	1452.191667	1908.569336	-159.412674
11709.988298	1452.191667	1907.588867	43.406116
11709.988298	1452.191667	1906.607422	-97.262032
11709.988298	1452.191667	1905.625977	0.778973
11709.988298	1452.191667	1904.644531	62.274311
11709.988298	1452.191667	1903.662109	19.084717
11709.988298	1452.191667	1902.680664	138.987381
11709.988298	1452.191667	1901.698242	232.089951
11709.988298	1452.191667	1900.715820	64.849579
11709.988298	1452.191667	1899.733398	-34.208355
11709.988298	1452.191667	1898.750000	49.180164
11709.988298	1452.191667	1897.767578	-76.561859
11709.988298	1452.191667	1896.784180	-19.915646
11709.988298	1452.191667	1895.800781	-9.461746
11709.988298	1452.191667	1894.817383	98.206467
11709.988298	1452.191667	1893.833984	103.797379
11709.988298	1452.191667	1892.850586	82.675591
11709.988298	1452.191667	1891.866211	15.424931
11709.988298	1452.191667	1890.881836	-117.355606
11709.988298	1452.191667	1889.897461	126.246902
11709.988298	1452.191667	1888.913086	-16.193531
11709.988298	1452.191667	1887.927734	64.711121
11709.988298	1452.191667	1886.943359	72.799942
11709.988298	1452.191667	1885.958008	17.817411
11709.988298	1452.191667	1884.972656	13.802325
11709.988298	1452.191667	1883.987305	-36.279743
11709.988298	1452.191667	1883.001953	134.314117
11709.988298	1452.191667	1882.015625	-124.240509
11709.988298	1452.191667	1881.029297	-169.395615
11709.988298	1452.191667	1880.042969	117.472519
11709.988298	1452.191667	1879.056641	-58.530926
11709.988298	1452.191667	1878.070313	-47.933605
11709.988298	1452.191667	1877.083984	-165.698242
11709.988298	1452.191667	1876.096680	-99.375313
11709.988298	1452.191667	1875.109375	61.350632
11709.988298	1452.191667	1874.122070	-34.563221
11709.988298	1452.191667	1873.134766	150.304642
11709.988298	1452.191667	1872.146484	47.161560
11709.988298	1452.191667	1871.159180	-14.809568
11709.988298	1452.191667	1870.170898	162.709076
11709.988298	1452.191667	1869.182617	-99.974922
11709.988298	1452.191667	1868.194336	133.113129
11709.988298	1452.191667	1867.205078	-98.032837
11709.988298	1452.191667	1866.216797	47.962402
11709.988298	1452.191667	1865.227539	63.412773
11709.988298	1452.191667	1864.238281	-25.032415
11709.988298	1452.191667	1863.249023	74.977005
11709.988298	1452.191667	1862.259766	17.963566
11709.988298	1452.191667	1861.269531	-0.391811
11709.988298	1452.191667	1860.279297	-86.339256
11709.988298	1452.191667	1859.290039	54.645489
11709.988298	1452.191667	1858.298828	33.880463
11709.988298	1452.191667	1857.308594	145.833862
11709.988298	1452.191667	1856.318359	57.509346
11709.988298	1452.191667	1855.327148	104.288986
11709.988298	1452.191667	1854.335938	-51.521713
11709.988298	1452.191667	1853.344727	161.622696
11709.988298	1452.191667	1852.353516	155.315002
11709.988298	1452.191667	1851.362305	11.625073
11709.988298	1452.191667	1850.370117	67.993546
11709.988298	1452.191667	1849.377930	196.615555
11709.988298	1452.191667	1848.385742	158.974533
11709.988298	1452.191667	1847.393555	15.373725
11709.988298	1452.191667	1846.401367	69.271149
11709.988298	1452.191667	1845.408203	60.547844
11709.988298	1452.191667	1844.415039	-32.424759
11709.988298	1452.191667	1843.421875	189.891922
11709.988298	1452.191667	1842.428711	183.535522
11709.988298	1452.191667	1841.435547	-27.308426
11709.988298	1452.191667	1840.441406	211.693726
11709.988298	1452.191667	1839.448242	104.311272
11709.988298	1452.191667	1838.454102	66.684113
11709.988298	1452.191667	1837.459961	158.869751
11709.988298	1452.191667	1836.464844	243.799438
11709.988298	1452.191667	1835.470703	206.136581
11709.988298	1452.191667	1834.475586	-33.334442
11709.988298	1452.191667	1833.480469	-140.614700
11709.988298	1452.191667	1832.485352	-146.999573
11709.988298	1452.191667	1831.490234	48.300995
11709.988298	1452.191667	1830.495117	51.459389
11709.988298	1452.191667	1829.499023	114.608444
11709.988298	1452.191667	1828.502930	62.529411
11709.988298	1452.191667	1827.506836	-27.933935
11709.988298	1452.191667	1826.510742	27.953293
11709.988298	1452.191667	1825.513672	218.115387
11709.988298	1452.191667	1824.517578	142.014404
11709.988298	1452.191667	1823.520508	113.875816
11709.988298	1452.191667	1822.523438	289.481476
11709.988298	1452.191667	1821.526367	76.751320
11709.988298	1452.191667	1820.529297	-44.862438
11709.988298	1452.191667	1819.531250	-89.786179
11709.988298	1452.191667	1818.533203	131.161896
11709.988298	1452.191667	1817.535156	31.102457
11709.988298	1452.191667	1816.537109	5.286528
11709.988298	1452.191667	1815.539063	60.852844
11709.988298	1452.191667	1814.540039	11.064398
11709.988298	1452.191667	1813.541992	-29.153456
11709.988298	1452.191667	1812.542969	81.352638
11709.988298	1452.191667	1811.543945	41.092289
11709.988298	1452.191667	1810.543945	48.657028
11709.988298	1452.191667	1809.544922	51.414291
11709.988298	1452.191667	1808.544922	25.457706
11709.988298	1452.191667	1807.544922	-12.464252
11709.988298	1452.191667	1806.544922	88.214424
11709.988298	1452.191667	1805.544922	193.610062
11709.988298	1452.191667	1804.544922	79.158287
11709.988298	1452.191667	1803.543945	112.809410
11709.988298	1452.191667	1802.542969	-85.216759
11709.988298	1452.191667	1801.541992	194.321579
11709.988298	1452.191667	1800.541016	110.884514
11709.988298	1452.191667	1799.539063	63.251366
11709.988298	1452.191667	1798.538086	77.651466
11709.988298	1452.191667	1797.536133	46.688217
11709.988298	1452.191667	1796.534180	111.121155
11709.988298	1452.191667	1795.532227	30.024643
11709.988298	1452.191667	1794.529297	196.908371
11709.988298	1452.191667	1793.527344	32.329578
11709.988298	1452.191667	1792.524414	89.449554
11709.988298	1452.191667	1791.521484	103.622711
11709.988298	1452.191667	1790.518555	-25.196188
11709.988298	1452.191667	1789.514648	-32.507824
11709.988298	1452.191667	1788.511719	67.331299
11709.988298	1452.191667	1787.507813	59.943634
11709.988298	1452.191667	1786.503906	35.861008
11709.988298	1452.191667	1785.500000	11.756482
11709.988298	1452.191667	1784.496094	66.165909
11709.988298	1452.191667	1783.491211	-38.902744
11709.988298	1452.191667	1782.486328	-22.634306
11709.988298	1452.191667	1781.481445	-58.733627
11709.988298	1452.191667	1780.476563	76.371315
11709.988298	1452.191667	1779.471680	173.349213
11709.988298	1452.191667	1778.465820	53.929573
11709.988298	1452.191667	1777.460938	-17.941595
11709.988298	1452.191667	1776.455078	147.808716
11709.988298	1452.191667	1775.449219	104.386574
11709.988298	1452.191667	1774.442383	-17.443462
11709.988298	1452.191667	1773.436523	41.236080
11709.988298	1452.191667	1772.429688	64.238701
11709.988298	1452.191667	1771.422852	184.532837
11709.988298	1452.191667	1770.416016	145.714966
11709.988298	1452.191667	1769.409180	163.832275
11709.988298	1452.191667	1768.402344	-31.635910
11709.988298	1452.191667	1767.394531	-51.522385
11709.988298	1452.191667	1766.386719	75.613647
11709.988298	1452.191667	1765.378906	67.498589
11709.988298	1452.191667	1764.371094	59.350071
11709.988298	1452.191667	1763.362305	172.057846
11709.988298	1452.191667	1762.354492	144.858566
11709.988298	1452.191667	1761.345703	-57.715233
11709.988298	1452.191667	1760.336914	50.100758
11709.988298	1452.191667	1759.328125	183.893814
11709.988298	1452.191667	1758.318359	-108.677406
11709.988298	1452.191667	1757.308594	-107.576035
11709.988298	1452.191667	1756.299805	-104.143478
11709.988298	1452.191667	1755.290039	-53.415424
11709.988298	1452.191667	1754.279297	58.778355
11709.988298	1452.191667	1753.269531	-127.213478
11709.988298	1452.191667	1752.258789	119.707466
11709.988298	1452.191667	1751.249023	21.204947
11709.988298	1452.191667	1750.238281	123.687782
11709.988298	1452.191667	1749.226563	41.688534
11709.988298	1452.191667	1748.215820	66.049904
11709.988298	1452.191667	1747.204102	-20.711082
11709.988298	1452.191667	1746.193359	102.812881
11709.988298	1452.191667	1745.181641	105.769058
11709.988298	1452.191667	1744.168945	-66.096085
11709.988298	1452.191667	1743.157227	-74.993164
11709.988298	1452.191667	1742.144531	-6.016327
11709.988298	1452.191667	1741.132813	145.516556
11709.988298	1452.191667	1740.120117	-35.820843
11709.988298	1452.191667	1739.106445	75.462624
11709.988298	1452.191667	1738.093750	-25.657721
11709.988298	1452.191667	1737.080078	33.611832
11709.988298	1452.191667	1736.067383	187.153992
11709.988298	1452.191667	1735.053711	15.216441
11709.988298	1452.191667	1734.040039	-95.403206
11709.988298	1452.191667	1733.025391	-114.102188
11709.988298	1452.191667	1732.011719	29.767157
11709.988298	1452.191667	1730.997070	161.759384
11709.988298	1452.191667	1729.982422	-120.918045
11709.988298	1452.191667	1728.967773	-40.837318
11709.988298	1452.191667	1727.952148	50.944515
11709.988298	1452.191667	1726.937500	-0.951345
11709.988298	1452.191667	1725.921875	109.541061
11709.988298	1452.191667	1724.906250	-48.325699
11709.988298	1452.191667	1723.890625	-90.879128
11709.988298	1452.191667	1722.875000	113.549355
11709.988298	1452.191667	1721.858398	103.829285
11709.988298	1452.191667	1720.841797	7.068881
11709.988298	1452.191667	1719.825195	103.095436
11709.988298	1452.191667	1718.808594	88.568283
11709.988298	1452.191667	1717.791992	-81.101776
11709.988298	1452.191667	1716.774414	33.568436
11709.988298	1452.191667	1715.756836	171.650223
11709.988298	1452.191667	1714.739258	128.782913
11709.988298	1452.191667	1713.721680	-151.290619
11709.988298	1452.191667	1712.704102	50.030895
11709.988298	1452.191667	1711.685547	-82.106438
11709.988298	1452.191667	1710.667969	4.047712
11709.988298	1452.191667	1709.649414	-27.199991
11709.988298	1452.191667	1708.630859	-58.471325
11709.988298	1452.191667	1707.611328	65.043785
11709.988298	1452.191667	1706.592773	54.802002
11709.988298	1452.191667	1705.573242	53.904186
11709.988298	1452.191667	1704.553711	139.711624
11709.988298	1452.191667	1703.534180	5.126914
11709.988298	1452.191667	1702.513672	189.260284
11709.988298	1452.191667	1701.494141	-22.669048
11709.988298	1452.191667	1700.473633	-126.800255
11709.988298	1452.191667	1699.453125	92.281372
11709.988298	1452.191667	1698.432617	-112.588951
11709.988298	1452.191667	1697.412109	-92.661423
11709.988298	1452.191667	1696.390625	20.849823
11709.988298	1452.191667	1695.369141	82.798592
11709.988298	1452.191667	1694.347656	-72.912971
11709.988298	1452.191667	1693.326172	10.019156
11709.988298	1452.191667	1692.304688	-54.464790
11709.988298	1452.191667	1691.282227	70.455612
11709.988298	1452.191667	1690.260742	5.921682
11709.988298	1452.191667	1689.238281	-84.337204
11709.988298	1452.191667	1688.214844	-13.334959
11709.988298	1452.191667	1687.192383	-73.239662
11709.988298	1452.191667	1686.168945	112.147163
11709.988298	1452.191667	1685.146484	288.094574
11709.988298	1452.191667	1684.123047	52.921532
11709.988298	1452.191667	1683.099609	182.051102
11709.988298	1452.191667	1682.075195	19.293745
11709.988298	1452.191667	1681.051758	33.957310
11709.988298	1452.191667	1680.027344	78.917717
11709.988298	1452.191667	1679.002930	30.509766
11709.988298	1452.191667	1677.978516	231.684509
11709.988298	1452.191667	1676.953125	96.915390
11709.988298	1452.191667	1675.928711	179.027130
11709.988298	1452.191667	1674.903320	90.892029
11709.988298	1452.191667	1673.877930	142.614532
11709.988298	1452.191667	1672.852539	103.406471
11709.988298	1452.191667	1671.826172	129.420883
11709.988298	1452.191667	1670.800781	339.435394
11709.988298	1452.191667	1669.774414	239.576447
11709.988298	1452.191667	1668.748047	46.588314
11709.988298	1452.191667	1667.721680	37.573936
11709.988298	1452.191667	1666.694336	86.726807
11709.988298	1452.191667	1665.667969	277.804260
11709.988298	1452.191667	1664.640625	82.532646
11709.988298	1452.191667	1663.613281	154.843384
11709.988298	1452.191667	1662.585938	173.608963
11709.988298	1452.191667	1661.557617	224.896835
11709.988298	1452.191667	1660.530273	224.999161
11709.988298	1452.191667	1659.501953	234.373642
11709.988298	1452.191667	1658.473633	78.713470
11709.988298	1452.191667	1657.444336	201.925873
11709.988298	1452.191667	1656.416016	257.704071
11709.988298	1452.191667	1655.386719	90.452911
11709.988298	1452.191667	1654.358398	236.763596
11709.988298	1452.191667	1653.328125	273.862183
11709.988298	1452.191667	1652.298828	290.041107
11709.988298	1452.191667	1651.269531	262.099213
11709.988298	1452.191667	1650.239258	378.016846
11709.988298	1452.191667	1649.208984	303.629028
11709.988298	1452.191667	1648.178711	152.707184
11709.988298	1452.191667	1647.148438	268.532074
11709.988298	1452.191667	1646.117188	173.289154
11709.988298	1452.191667	1645.086914	221.806229
11709.988298	1452.191667	1644.055664	344.455139
11709.988298	1452.191667	1643.024414	411.426422
11709.988298	1452.191667	1641.992188	332.387939
11709.988298	1452.191667	1640.960938	438.690002
11709.988298	1452.191667	1639.928711	565.777649
11709.988298	1452.191667	1638.896484	505.243835
11709.988298	1452.191667	1637.864258	405.365875
11709.988298	1452.191667	1636.832031	604.107666
11709.988298	1452.191667	1635.798828	520.422607
11709.988298	1452.191667	1634.766602	436.766235
11709.988298	1452.191667	1633.733398	378.574158
11709.988298	1452.191667	1632.699219	382.837585
11709.988298	1452.191667	1631.666016	384.784973
11709.988298	1452.191667	1630.632813	389.036285
11709.988298	1452.191667	1629.598633	488.045380
11709.988298	1452.191667	1628.564453	471.456055
11709.988298	1452.191667	1627.530273	443.313782
11709.988298	1452.191667	1626.495117	472.925934
11709.988298	1452.191667	1625.460938	495.598175
11709.988298	1452.191667	1624.425781	617.550293
11709.988298	1452.191667	1623.390625	660.950989
11709.988298	1452.191667	1622.355469	466.567871
11709.988298	1452.191667	1621.319336	392.264526
11709.988298	1452.191667	1620.284180	472.594635
11709.988298	1452.191667	1619.248047	670.544617
11709.988298	1452.191667	1618.211914	483.216766
11709.988298	1452.191667	1617.174805	485.058167
11709.988298	1452.191667	1616.138672	440.790497
11709.988298	1452.191667	1615.101563	703.131592
11709.988298	1452.191667	1614.065430	522.856812
11709.988298	1452.191667	1613.027344	637.598389
11709.988298	1452.191667	1611.990234	648.627502
11709.988298	1452.191667	1610.953125	567.516235
11709.988298	1452.191667	1609.915039	656.856201
11709.988298	1452.191667	1608.876953	709.323425
11709.988298	1452.191667	1607.838867	722.638184
11709.988298	1452.191667	1606.800781	712.936279
11709.988298	1452.191667	1605.761719	604.285400
11709.988298	1452.191667	1604.723633	578.515015
11709.988298	1452.191667	1603.684570	872.497375
11709.988298	1452.191667	1602.644531	802.988953
11709.988298	1452.191667	1601.605469	754.214661
11709.988298	1452.191667	1600.566406	537.643127
11709.988298	1452.191667	1599.526367	665.935425
11709.988298	1452.191667	1598.486328	757.416809
11709.988298	1452.191667	1597.446289	674.252991
11709.988298	1452.191667	1596.405273	875.974548
11709.988298	1452.191667	1595.365234	802.026611
11709.988298	1452.191667	1594.324219	769.446106
11709.988298	1452.191667	1593.283203	711.635559
11709.988298	1452.191667	1592.242188	665.335571
11709.988298	1452.191667	1591.200195	782.000427
11709.988298	1452.191667	1590.159180	864.220947
11709.988298	1452.191667	1589.117188	893.654297
11709.988298	1452.191667	1588.075195	751.072083
11709.988298	1452.191667	1587.032227	837.866943
11709.988298	1452.191667	1585.990234	970.502197
11709.988298	1452.191667	1584.947266	832.612244
11709.988298	1452.191667	1583.904297	862.092102
11709.988298	1452.191667	1582.861328	861.789368
11709.988298	1452.191667	1581.818359	779.032227
