#X		#Y		#Wave		#Intensity
-7424.066862	4088.557000	1999.946289	-27.195824
-7424.066862	4088.557000	1998.981445	-43.455853
-7424.066862	4088.557000	1998.017578	-110.614372
-7424.066862	4088.557000	1997.052734	-9.239964
-7424.066862	4088.557000	1996.088867	149.082443
-7424.066862	4088.557000	1995.124023	-12.215734
-7424.066862	4088.557000	1994.159180	-96.676422
-7424.066862	4088.557000	1993.193359	-77.105583
-7424.066862	4088.557000	1992.228516	66.248734
-7424.066862	4088.557000	1991.262695	73.402870
-7424.066862	4088.557000	1990.296875	13.730426
-7424.066862	4088.557000	1989.331055	100.070847
-7424.066862	4088.557000	1988.365234	32.991608
-7424.066862	4088.557000	1987.398438	50.034367
-7424.066862	4088.557000	1986.432617	-19.485481
-7424.066862	4088.557000	1985.465820	116.244270
-7424.066862	4088.557000	1984.499023	-7.652832
-7424.066862	4088.557000	1983.532227	-35.108360
-7424.066862	4088.557000	1982.565430	83.247864
-7424.066862	4088.557000	1981.597656	48.370541
-7424.066862	4088.557000	1980.629883	-60.603615
-7424.066862	4088.557000	1979.662109	62.628170
-7424.066862	4088.557000	1978.694336	-41.370094
-7424.066862	4088.557000	1977.726563	12.681411
-7424.066862	4088.557000	1976.758789	51.901363
-7424.066862	4088.557000	1975.790039	258.930481
-7424.066862	4088.557000	1974.821289	76.007957
-7424.066862	4088.557000	1973.852539	83.119675
-7424.066862	4088.557000	1972.883789	3.896000
-7424.066862	4088.557000	1971.915039	72.672882
-7424.066862	4088.557000	1970.945313	-48.438789
-7424.066862	4088.557000	1969.975586	40.041889
-7424.066862	4088.557000	1969.005859	32.361977
-7424.066862	4088.557000	1968.036133	179.938950
-7424.066862	4088.557000	1967.066406	-111.112488
-7424.066862	4088.557000	1966.096680	134.972794
-7424.066862	4088.557000	1965.125977	-59.908180
-7424.066862	4088.557000	1964.155273	-38.015778
-7424.066862	4088.557000	1963.184570	-188.475998
-7424.066862	4088.557000	1962.213867	37.744808
-7424.066862	4088.557000	1961.242188	22.687193
-7424.066862	4088.557000	1960.271484	113.445709
-7424.066862	4088.557000	1959.299805	125.440849
-7424.066862	4088.557000	1958.328125	-106.087265
-7424.066862	4088.557000	1957.356445	36.286591
-7424.066862	4088.557000	1956.384766	70.416862
-7424.066862	4088.557000	1955.412109	106.990562
-7424.066862	4088.557000	1954.439453	50.147686
-7424.066862	4088.557000	1953.467773	-60.738354
-7424.066862	4088.557000	1952.495117	64.289528
-7424.066862	4088.557000	1951.521484	206.464172
-7424.066862	4088.557000	1950.548828	-110.707802
-7424.066862	4088.557000	1949.575195	-81.516388
-7424.066862	4088.557000	1948.601563	-13.054008
-7424.066862	4088.557000	1947.627930	-20.715775
-7424.066862	4088.557000	1946.654297	-11.196113
-7424.066862	4088.557000	1945.680664	35.125980
-7424.066862	4088.557000	1944.706055	7.826153
-7424.066862	4088.557000	1943.732422	213.563370
-7424.066862	4088.557000	1942.757813	-93.344482
-7424.066862	4088.557000	1941.783203	6.893447
-7424.066862	4088.557000	1940.807617	207.603775
-7424.066862	4088.557000	1939.833008	145.971832
-7424.066862	4088.557000	1938.857422	-55.327576
-7424.066862	4088.557000	1937.881836	-185.499695
-7424.066862	4088.557000	1936.906250	-43.705784
-7424.066862	4088.557000	1935.930664	93.133652
-7424.066862	4088.557000	1934.955078	-169.237366
-7424.066862	4088.557000	1933.978516	14.086343
-7424.066862	4088.557000	1933.001953	-101.305527
-7424.066862	4088.557000	1932.025391	32.981426
-7424.066862	4088.557000	1931.048828	113.381653
-7424.066862	4088.557000	1930.072266	2.918952
-7424.066862	4088.557000	1929.094727	-80.601112
-7424.066862	4088.557000	1928.118164	-80.940933
-7424.066862	4088.557000	1927.140625	82.540039
-7424.066862	4088.557000	1926.163086	6.374360
-7424.066862	4088.557000	1925.184570	203.988174
-7424.066862	4088.557000	1924.207031	42.287094
-7424.066862	4088.557000	1923.228516	-109.586426
-7424.066862	4088.557000	1922.250000	-29.333708
-7424.066862	4088.557000	1921.271484	-63.909473
-7424.066862	4088.557000	1920.292969	11.411231
-7424.066862	4088.557000	1919.314453	18.336765
-7424.066862	4088.557000	1918.334961	13.047647
-7424.066862	4088.557000	1917.355469	0.433379
-7424.066862	4088.557000	1916.375977	124.466965
-7424.066862	4088.557000	1915.396484	246.008621
-7424.066862	4088.557000	1914.416992	79.669029
-7424.066862	4088.557000	1913.436523	103.609650
-7424.066862	4088.557000	1912.457031	159.234680
-7424.066862	4088.557000	1911.476563	122.192360
-7424.066862	4088.557000	1910.496094	216.777969
-7424.066862	4088.557000	1909.515625	-17.668293
-7424.066862	4088.557000	1908.534180	-13.257483
-7424.066862	4088.557000	1907.552734	5.761771
-7424.066862	4088.557000	1906.572266	-89.705338
-7424.066862	4088.557000	1905.590820	14.537202
-7424.066862	4088.557000	1904.608398	-192.908737
-7424.066862	4088.557000	1903.626953	-1.068514
-7424.066862	4088.557000	1902.644531	-130.567963
-7424.066862	4088.557000	1901.663086	92.807343
-7424.066862	4088.557000	1900.680664	182.281631
-7424.066862	4088.557000	1899.698242	-95.580193
-7424.066862	4088.557000	1898.714844	91.156654
-7424.066862	4088.557000	1897.732422	56.549397
-7424.066862	4088.557000	1896.749023	58.411591
-7424.066862	4088.557000	1895.765625	6.790583
-7424.066862	4088.557000	1894.782227	86.408386
-7424.066862	4088.557000	1893.798828	226.729218
-7424.066862	4088.557000	1892.814453	65.762032
-7424.066862	4088.557000	1891.831055	94.292656
-7424.066862	4088.557000	1890.846680	-5.900109
-7424.066862	4088.557000	1889.862305	117.299492
-7424.066862	4088.557000	1888.877930	235.588089
-7424.066862	4088.557000	1887.892578	48.023907
-7424.066862	4088.557000	1886.908203	-18.153021
-7424.066862	4088.557000	1885.922852	32.133381
-7424.066862	4088.557000	1884.937500	111.497925
-7424.066862	4088.557000	1883.952148	-112.320755
-7424.066862	4088.557000	1882.965820	88.253105
-7424.066862	4088.557000	1881.980469	-9.438819
-7424.066862	4088.557000	1880.994141	77.101349
-7424.066862	4088.557000	1880.007813	8.504574
-7424.066862	4088.557000	1879.021484	65.911842
-7424.066862	4088.557000	1878.035156	-148.025131
-7424.066862	4088.557000	1877.047852	40.152168
-7424.066862	4088.557000	1876.061523	24.841227
-7424.066862	4088.557000	1875.074219	2.259508
-7424.066862	4088.557000	1874.086914	-61.476101
-7424.066862	4088.557000	1873.098633	99.872673
-7424.066862	4088.557000	1872.111328	69.994408
-7424.066862	4088.557000	1871.123047	-3.433064
-7424.066862	4088.557000	1870.135742	-79.263107
-7424.066862	4088.557000	1869.147461	135.122009
-7424.066862	4088.557000	1868.158203	13.326132
-7424.066862	4088.557000	1867.169922	-81.843880
-7424.066862	4088.557000	1866.180664	33.284328
-7424.066862	4088.557000	1865.192383	-61.879311
-7424.066862	4088.557000	1864.203125	24.182255
-7424.066862	4088.557000	1863.213867	-44.400776
-7424.066862	4088.557000	1862.223633	-105.728622
-7424.066862	4088.557000	1861.234375	-19.747210
-7424.066862	4088.557000	1860.244141	-40.041637
-7424.066862	4088.557000	1859.253906	-12.066114
-7424.066862	4088.557000	1858.263672	107.591835
-7424.066862	4088.557000	1857.273438	239.255356
-7424.066862	4088.557000	1856.282227	76.535072
-7424.066862	4088.557000	1855.291992	-148.848740
-7424.066862	4088.557000	1854.300781	-41.371479
-7424.066862	4088.557000	1853.309570	34.706097
-7424.066862	4088.557000	1852.317383	69.757774
-7424.066862	4088.557000	1851.326172	97.552742
-7424.066862	4088.557000	1850.333984	93.993446
-7424.066862	4088.557000	1849.342773	22.963408
-7424.066862	4088.557000	1848.350586	144.647720
-7424.066862	4088.557000	1847.357422	-5.876092
-7424.066862	4088.557000	1846.365234	139.816559
-7424.066862	4088.557000	1845.372070	-5.866133
-7424.066862	4088.557000	1844.379883	-7.087395
-7424.066862	4088.557000	1843.386719	210.671249
-7424.066862	4088.557000	1842.393555	264.716614
-7424.066862	4088.557000	1841.399414	-46.935623
-7424.066862	4088.557000	1840.406250	31.157938
-7424.066862	4088.557000	1839.412109	-109.627907
-7424.066862	4088.557000	1838.417969	79.010765
-7424.066862	4088.557000	1837.423828	142.562653
-7424.066862	4088.557000	1836.429688	-115.980156
-7424.066862	4088.557000	1835.434570	34.054756
-7424.066862	4088.557000	1834.440430	90.322350
-7424.066862	4088.557000	1833.445313	2.427738
-7424.066862	4088.557000	1832.450195	116.281876
-7424.066862	4088.557000	1831.454102	-22.043962
-7424.066862	4088.557000	1830.458984	-133.924957
-7424.066862	4088.557000	1829.462891	-5.761489
-7424.066862	4088.557000	1828.466797	91.140190
-7424.066862	4088.557000	1827.470703	163.994873
-7424.066862	4088.557000	1826.474609	78.479721
-7424.066862	4088.557000	1825.478516	86.517555
-7424.066862	4088.557000	1824.481445	-10.977675
-7424.066862	4088.557000	1823.484375	126.502785
-7424.066862	4088.557000	1822.487305	108.104401
-7424.066862	4088.557000	1821.490234	-15.754416
-7424.066862	4088.557000	1820.493164	59.295914
-7424.066862	4088.557000	1819.495117	-50.170563
-7424.066862	4088.557000	1818.498047	67.937180
-7424.066862	4088.557000	1817.500000	25.528984
-7424.066862	4088.557000	1816.500977	-91.108131
-7424.066862	4088.557000	1815.502930	-4.236053
-7424.066862	4088.557000	1814.504883	168.749512
-7424.066862	4088.557000	1813.505859	-91.481781
-7424.066862	4088.557000	1812.506836	-59.743233
-7424.066862	4088.557000	1811.507813	0.670213
-7424.066862	4088.557000	1810.508789	-5.922623
-7424.066862	4088.557000	1809.508789	-46.010826
-7424.066862	4088.557000	1808.508789	93.203217
-7424.066862	4088.557000	1807.508789	69.807373
-7424.066862	4088.557000	1806.508789	-6.173959
-7424.066862	4088.557000	1805.508789	235.642029
-7424.066862	4088.557000	1804.508789	-24.325243
-7424.066862	4088.557000	1803.507813	200.644043
-7424.066862	4088.557000	1802.506836	55.367126
-7424.066862	4088.557000	1801.505859	-25.408913
-7424.066862	4088.557000	1800.504883	125.377930
-7424.066862	4088.557000	1799.502930	77.993309
-7424.066862	4088.557000	1798.501953	116.514305
-7424.066862	4088.557000	1797.500000	-9.617134
-7424.066862	4088.557000	1796.498047	78.957848
-7424.066862	4088.557000	1795.496094	57.777840
-7424.066862	4088.557000	1794.493164	-151.783173
-7424.066862	4088.557000	1793.491211	60.679691
-7424.066862	4088.557000	1792.488281	-94.019211
-7424.066862	4088.557000	1791.485352	104.014236
-7424.066862	4088.557000	1790.482422	211.415298
-7424.066862	4088.557000	1789.478516	-86.210648
-7424.066862	4088.557000	1788.475586	-95.553772
-7424.066862	4088.557000	1787.471680	-28.714905
-7424.066862	4088.557000	1786.467773	38.080528
-7424.066862	4088.557000	1785.463867	-49.890099
-7424.066862	4088.557000	1784.459961	9.707729
-7424.066862	4088.557000	1783.455078	59.743935
-7424.066862	4088.557000	1782.450195	-6.827636
-7424.066862	4088.557000	1781.445313	76.455956
-7424.066862	4088.557000	1780.440430	-118.546364
-7424.066862	4088.557000	1779.435547	76.439865
-7424.066862	4088.557000	1778.429688	-35.326332
-7424.066862	4088.557000	1777.424805	147.649826
-7424.066862	4088.557000	1776.418945	147.562103
-7424.066862	4088.557000	1775.413086	-52.113544
-7424.066862	4088.557000	1774.406250	2.431149
-7424.066862	4088.557000	1773.400391	-11.932417
-7424.066862	4088.557000	1772.393555	85.288712
-7424.066862	4088.557000	1771.386719	89.868416
-7424.066862	4088.557000	1770.379883	108.670029
-7424.066862	4088.557000	1769.373047	-105.119354
-7424.066862	4088.557000	1768.365234	-159.879044
-7424.066862	4088.557000	1767.358398	-186.165665
-7424.066862	4088.557000	1766.350586	100.611221
-7424.066862	4088.557000	1765.342773	-13.492186
-7424.066862	4088.557000	1764.334961	-108.602264
-7424.066862	4088.557000	1763.326172	182.681900
-7424.066862	4088.557000	1762.318359	-78.361702
-7424.066862	4088.557000	1761.309570	-33.658390
-7424.066862	4088.557000	1760.300781	-100.335464
-7424.066862	4088.557000	1759.291016	41.430786
-7424.066862	4088.557000	1758.282227	-37.109829
-7424.066862	4088.557000	1757.272461	35.893131
-7424.066862	4088.557000	1756.262695	-106.569885
-7424.066862	4088.557000	1755.252930	-26.514414
-7424.066862	4088.557000	1754.243164	79.524010
-7424.066862	4088.557000	1753.233398	17.525951
-7424.066862	4088.557000	1752.222656	239.386810
-7424.066862	4088.557000	1751.211914	54.364708
-7424.066862	4088.557000	1750.201172	-166.071518
-7424.066862	4088.557000	1749.190430	-67.284546
-7424.066862	4088.557000	1748.179688	-72.552094
-7424.066862	4088.557000	1747.167969	94.676956
-7424.066862	4088.557000	1746.156250	138.963501
-7424.066862	4088.557000	1745.144531	-126.246048
-7424.066862	4088.557000	1744.132813	-74.879784
-7424.066862	4088.557000	1743.121094	-207.739349
-7424.066862	4088.557000	1742.108398	72.601311
-7424.066862	4088.557000	1741.095703	241.875549
-7424.066862	4088.557000	1740.083008	42.900879
-7424.066862	4088.557000	1739.070313	124.780945
-7424.066862	4088.557000	1738.057617	-76.484131
-7424.066862	4088.557000	1737.043945	21.864676
-7424.066862	4088.557000	1736.030273	139.028061
-7424.066862	4088.557000	1735.016602	159.461746
-7424.066862	4088.557000	1734.002930	-18.144697
-7424.066862	4088.557000	1732.989258	25.851463
-7424.066862	4088.557000	1731.974609	-106.921188
-7424.066862	4088.557000	1730.959961	78.404152
-7424.066862	4088.557000	1729.945313	-49.644554
-7424.066862	4088.557000	1728.930664	93.179436
-7424.066862	4088.557000	1727.916016	-25.431347
-7424.066862	4088.557000	1726.900391	-21.595434
-7424.066862	4088.557000	1725.885742	210.544312
-7424.066862	4088.557000	1724.870117	-32.789860
-7424.066862	4088.557000	1723.853516	-80.760902
-7424.066862	4088.557000	1722.837891	146.508896
-7424.066862	4088.557000	1721.822266	84.389259
-7424.066862	4088.557000	1720.805664	-92.947357
-7424.066862	4088.557000	1719.789063	-56.282471
-7424.066862	4088.557000	1718.772461	-113.667671
-7424.066862	4088.557000	1717.754883	-189.848511
-7424.066862	4088.557000	1716.738281	34.754498
-7424.066862	4088.557000	1715.720703	54.870781
-7424.066862	4088.557000	1714.703125	-108.239120
-7424.066862	4088.557000	1713.685547	-221.982758
-7424.066862	4088.557000	1712.667969	16.492121
-7424.066862	4088.557000	1711.649414	34.199654
-7424.066862	4088.557000	1710.630859	44.848679
-7424.066862	4088.557000	1709.612305	104.760666
-7424.066862	4088.557000	1708.593750	44.987545
-7424.066862	4088.557000	1707.575195	184.607635
-7424.066862	4088.557000	1706.555664	14.592581
-7424.066862	4088.557000	1705.536133	13.455461
-7424.066862	4088.557000	1704.516602	16.997728
-7424.066862	4088.557000	1703.497070	29.904144
-7424.066862	4088.557000	1702.477539	115.441986
-7424.066862	4088.557000	1701.457031	34.583855
-7424.066862	4088.557000	1700.437500	-55.618797
-7424.066862	4088.557000	1699.416992	29.854729
-7424.066862	4088.557000	1698.395508	134.015839
-7424.066862	4088.557000	1697.375000	-155.182617
-7424.066862	4088.557000	1696.354492	54.293011
-7424.066862	4088.557000	1695.333008	-5.454343
-7424.066862	4088.557000	1694.311523	79.881943
-7424.066862	4088.557000	1693.290039	104.354317
-7424.066862	4088.557000	1692.267578	2.504183
-7424.066862	4088.557000	1691.246094	-120.356140
-7424.066862	4088.557000	1690.223633	140.253418
-7424.066862	4088.557000	1689.201172	64.146843
-7424.066862	4088.557000	1688.178711	41.816517
-7424.066862	4088.557000	1687.155273	164.357056
-7424.066862	4088.557000	1686.132813	67.243927
-7424.066862	4088.557000	1685.109375	114.975700
-7424.066862	4088.557000	1684.085938	-47.495430
-7424.066862	4088.557000	1683.062500	107.632019
-7424.066862	4088.557000	1682.039063	258.025238
-7424.066862	4088.557000	1681.014648	153.948303
-7424.066862	4088.557000	1679.990234	101.244484
-7424.066862	4088.557000	1678.965820	277.196259
-7424.066862	4088.557000	1677.941406	231.476654
-7424.066862	4088.557000	1676.916992	106.476547
-7424.066862	4088.557000	1675.891602	212.356918
-7424.066862	4088.557000	1674.866211	175.984558
-7424.066862	4088.557000	1673.840820	39.396782
-7424.066862	4088.557000	1672.815430	-41.212826
-7424.066862	4088.557000	1671.790039	38.969425
-7424.066862	4088.557000	1670.763672	2.640184
-7424.066862	4088.557000	1669.737305	196.895233
-7424.066862	4088.557000	1668.710938	132.601501
-7424.066862	4088.557000	1667.684570	45.047794
-7424.066862	4088.557000	1666.658203	48.305607
-7424.066862	4088.557000	1665.630859	207.479309
-7424.066862	4088.557000	1664.603516	96.683723
-7424.066862	4088.557000	1663.576172	276.720856
-7424.066862	4088.557000	1662.548828	170.603622
-7424.066862	4088.557000	1661.520508	99.404152
-7424.066862	4088.557000	1660.493164	242.132187
-7424.066862	4088.557000	1659.464844	201.163193
-7424.066862	4088.557000	1658.436523	348.459686
-7424.066862	4088.557000	1657.408203	223.834412
-7424.066862	4088.557000	1656.378906	238.643677
-7424.066862	4088.557000	1655.350586	364.943085
-7424.066862	4088.557000	1654.321289	245.027130
-7424.066862	4088.557000	1653.291992	245.894394
-7424.066862	4088.557000	1652.261719	114.438362
-7424.066862	4088.557000	1651.232422	222.095459
-7424.066862	4088.557000	1650.202148	253.131866
-7424.066862	4088.557000	1649.171875	98.554016
-7424.066862	4088.557000	1648.141602	206.152161
-7424.066862	4088.557000	1647.111328	327.625763
-7424.066862	4088.557000	1646.080078	142.982544
-7424.066862	4088.557000	1645.049805	382.655975
-7424.066862	4088.557000	1644.018555	286.155487
-7424.066862	4088.557000	1642.987305	296.293091
-7424.066862	4088.557000	1641.955078	320.326538
-7424.066862	4088.557000	1640.923828	263.284027
-7424.066862	4088.557000	1639.891602	252.582214
-7424.066862	4088.557000	1638.859375	79.799713
-7424.066862	4088.557000	1637.827148	407.150635
-7424.066862	4088.557000	1636.794922	204.322723
-7424.066862	4088.557000	1635.761719	258.451691
-7424.066862	4088.557000	1634.729492	421.314667
-7424.066862	4088.557000	1633.696289	193.167221
-7424.066862	4088.557000	1632.662109	124.696136
-7424.066862	4088.557000	1631.628906	238.941193
-7424.066862	4088.557000	1630.594727	496.485168
-7424.066862	4088.557000	1629.561523	268.523071
-7424.066862	4088.557000	1628.527344	368.822296
-7424.066862	4088.557000	1627.493164	323.519989
-7424.066862	4088.557000	1626.458008	317.510742
-7424.066862	4088.557000	1625.423828	373.877197
-7424.066862	4088.557000	1624.388672	527.213989
-7424.066862	4088.557000	1623.353516	371.117157
-7424.066862	4088.557000	1622.318359	404.375061
-7424.066862	4088.557000	1621.282227	393.773956
-7424.066862	4088.557000	1620.247070	523.944214
-7424.066862	4088.557000	1619.210938	441.823273
-7424.066862	4088.557000	1618.174805	477.377380
-7424.066862	4088.557000	1617.137695	434.513855
-7424.066862	4088.557000	1616.101563	506.964600
-7424.066862	4088.557000	1615.064453	436.468872
-7424.066862	4088.557000	1614.027344	448.981171
-7424.066862	4088.557000	1612.990234	449.977264
-7424.066862	4088.557000	1611.953125	483.237640
-7424.066862	4088.557000	1610.916016	523.405151
-7424.066862	4088.557000	1609.877930	418.476074
-7424.066862	4088.557000	1608.839844	587.600098
-7424.066862	4088.557000	1607.801758	556.387756
-7424.066862	4088.557000	1606.763672	704.727051
-7424.066862	4088.557000	1605.724609	526.247070
-7424.066862	4088.557000	1604.685547	400.765503
-7424.066862	4088.557000	1603.646484	496.172119
-7424.066862	4088.557000	1602.607422	635.251404
-7424.066862	4088.557000	1601.568359	466.169556
-7424.066862	4088.557000	1600.528320	455.790161
-7424.066862	4088.557000	1599.489258	459.222656
-7424.066862	4088.557000	1598.449219	398.318085
-7424.066862	4088.557000	1597.408203	332.851074
-7424.066862	4088.557000	1596.368164	446.604828
-7424.066862	4088.557000	1595.327148	383.478241
-7424.066862	4088.557000	1594.287109	373.207581
-7424.066862	4088.557000	1593.246094	482.333435
-7424.066862	4088.557000	1592.204102	382.550415
-7424.066862	4088.557000	1591.163086	376.915924
-7424.066862	4088.557000	1590.121094	378.177704
-7424.066862	4088.557000	1589.079102	455.157043
-7424.066862	4088.557000	1588.037109	424.324860
-7424.066862	4088.557000	1586.995117	375.174500
-7424.066862	4088.557000	1585.953125	245.816559
-7424.066862	4088.557000	1584.910156	318.235962
-7424.066862	4088.557000	1583.867188	473.147430
-7424.066862	4088.557000	1582.824219	465.331451
-7424.066862	4088.557000	1581.781250	313.210114
